Timepoint (1min, 128Hz)	1 - F7	2 - F3	3 - F4	4 - F8	5 - T3	6 - C3	7 - Cz	8 - C4	9 - T4	10 - T5	11 - P3	12 - Pz	13 - P4	14 - T6	15 - O1	16 - O2
1	-137.02	-530.95	-496.7	-393.93	-239.79	-770.74	-856.38	-839.25	-565.21	-616.59	-839.25	-942.01	-736.48	-530.95	-171.28	-325.42
2	-205.53	-565.21	-496.7	-393.93	-256.91	-822.12	-856.38	-839.25	-513.83	-530.95	-736.48	-873.5	-650.85	-462.44	-119.89	-171.28
3	-154.15	-445.32	-308.3	-256.91	-51.38	-633.72	-650.85	-633.72	-325.42	-239.79	-342.55	-599.46	-376.81	-205.53	34.26	51.38
4	-85.64	-342.55	-154.15	-137.02	17.13	-462.44	-496.7	-462.44	-171.28	-102.77	-119.89	-462.44	-239.79	-85.64	85.64	154.15
5	-51.38	-308.3	102.77	85.64	51.38	-239.79	-222.66	-137.02	-17.13	-34.26	17.13	-274.04	-51.38	17.13	0	171.28
6	-119.89	-342.55	154.15	154.15	-17.13	-222.66	-154.15	0	34.26	-119.89	0	-171.28	-17.13	34.26	-51.38	137.02
7	-222.66	-222.66	154.15	205.53	-274.04	-222.66	0	119.89	119.89	-239.79	-137.02	17.13	51.38	85.64	-274.04	154.15
8	-205.53	-68.51	154.15	239.79	-291.17	-171.28	68.51	239.79	205.53	-239.79	-154.15	137.02	119.89	137.02	-308.3	188.4
9	-17.13	102.77	308.3	308.3	-205.53	0	359.68	428.19	376.81	-205.53	-171.28	359.68	222.66	188.4	-308.3	154.15
10	0	119.89	393.93	342.55	-119.89	85.64	479.57	496.7	411.06	-222.66	-222.66	393.93	256.91	154.15	-376.81	51.38
11	34.26	85.64	359.68	325.42	-17.13	102.77	548.08	445.32	222.66	-342.55	-359.68	342.55	274.04	68.51	-650.85	-119.89
12	68.51	68.51	274.04	274.04	17.13	34.26	445.32	342.55	85.64	-376.81	-445.32	239.79	239.79	0	-856.38	-137.02
13	85.64	0	68.51	68.51	68.51	-34.26	34.26	-68.51	-154.15	-462.44	-599.46	-188.4	-85.64	-137.02	-1079.03	-51.38
14	102.77	-17.13	0	0	102.77	-171.28	-171.28	-291.17	-291.17	-462.44	-633.72	-428.19	-308.3	-256.91	-942.01	0
15	0	-222.66	-205.53	-256.91	17.13	-479.57	-650.85	-736.48	-479.57	-479.57	-633.72	-736.48	-565.21	-393.93	-376.81	119.89
16	17.13	-308.3	-291.17	-308.3	-17.13	-633.72	-822.12	-839.25	-496.7	-376.81	-513.83	-702.23	-548.08	-393.93	17.13	188.4
17	-137.02	-479.57	-274.04	-222.66	-205.53	-565.21	-736.48	-667.97	-205.53	-34.26	17.13	-154.15	-102.77	-137.02	736.48	496.7
18	-154.15	-513.83	-222.66	-154.15	-205.53	-428.19	-616.59	-479.57	-34.26	85.64	154.15	34.26	0	0	907.76	565.21
19	-154.15	-462.44	-154.15	-34.26	-85.64	-171.28	-325.42	-171.28	34.26	205.53	359.68	445.32	256.91	274.04	1044.78	565.21
20	-137.02	-393.93	-85.64	0	-34.26	-68.51	-222.66	-102.77	51.38	256.91	428.19	565.21	325.42	325.42	1044.78	496.7
21	-17.13	-205.53	0	17.13	-17.13	0	-34.26	0	34.26	291.17	428.19	616.59	376.81	325.42	839.25	239.79
22	-17.13	-154.15	-17.13	68.51	-34.26	0	17.13	34.26	85.64	239.79	342.55	565.21	359.68	308.3	650.85	85.64
23	-85.64	-85.64	-34.26	34.26	-51.38	17.13	137.02	188.4	137.02	51.38	154.15	496.7	393.93	274.04	308.3	-34.26
24	-51.38	-51.38	-51.38	17.13	-34.26	0	239.79	239.79	188.4	51.38	188.4	565.21	462.44	325.42	188.4	-34.26
25	68.51	51.38	17.13   17.13	68.51	205.53	548.08	445.32	188.4	274.04	393.93	907.76	565.21	359.68	188.4	85.64
26	205.53	154.15	68.51	51.38	171.28	428.19	650.85	530.95	205.53	428.19	530.95	1044.78	599.46	308.3	239.79	188.4
27	308.3	205.53	274.04	239.79	308.3	479.57	548.08	565.21	188.4	530.95	599.46	856.38	411.06	119.89	291.17	274.04
28	239.79	119.89	256.91	256.91	274.04	342.55	376.81	479.57	188.4	479.57	513.83	548.08	239.79	-34.26	274.04	188.4
29	34.26	-102.77	34.26	85.64	17.13	-119.89	-154.15	34.26	68.51	205.53	171.28	-102.77	-137.02	-171.28	274.04	-34.26
30	-17.13	-171.28	-34.26	-17.13	-34.26	-325.42	-428.19	-171.28	34.26	119.89	34.26	-411.06	-342.55	-256.91	239.79	-171.28
31	17.13	-119.89	-171.28	-137.02	-34.26	-411.06	-804.99	-513.83	-17.13	34.26	-17.13	-770.74	-565.21	-325.42	119.89	-376.81
32	85.64	-51.38	-154.15	-137.02	85.64	-325.42	-804.99	-530.95	-17.13	68.51	0	-770.74	-565.21	-325.42	68.51	-445.32
33	154.15	34.26	17.13	17.13	291.17	171.28	-222.66	-51.38	85.64	479.57	513.83	-119.89	-171.28	-51.38	359.68	-291.17
34	188.4	85.64	68.51	51.38	274.04	325.42	0	51.38	171.28	616.59	685.1	154.15	0	51.38	496.7	-154.15
35	205.53	239.79	68.51	85.64	205.53	496.7	171.28	154.15	188.4	770.74	924.89	496.7	137.02	239.79	565.21	-34.26
36	188.4	205.53	34.26	68.51	188.4	496.7	154.15	119.89	171.28	753.61	907.76	479.57	119.89	205.53	496.7	0
37	85.64	68.51	0	17.13	119.89	376.81	85.64	34.26	171.28	616.59	685.1	188.4	-17.13	34.26	342.55	-171.28
38	34.26	34.26	0	17.13	68.51	308.3	119.89	85.64	239.79	548.08	616.59	119.89	-34.26	0	308.3	-239.79
39	102.77	205.53	222.66	137.02	119.89	393.93	376.81	411.06	376.81	548.08	616.59	239.79	34.26	0	342.55	-239.79
40	222.66	411.06	325.42	205.53	205.53	513.83	530.95	565.21	376.81	616.59	650.85	359.68	85.64	0	308.3	-222.66
41	445.32	633.72	445.32	274.04	411.06	753.61	650.85	599.46	222.66	565.21	599.46	376.81	-17.13	-205.53	137.02	-291.17
42	462.44	616.59	393.93	256.91	428.19	753.61	565.21	479.57	137.02	428.19	445.32	274.04	-137.02	-376.81	34.26	-411.06
43	342.55	393.93	291.17	188.4	308.3	548.08	308.3	205.53	85.64	119.89	119.89	51.38	-376.81	-616.59	17.13	-462.44
44	256.91	291.17	274.04	154.15	205.53	393.93	188.4	154.15	102.77	34.26	34.26	17.13	-393.93	-616.59	34.26	-376.81
45	154.15	274.04	188.4	68.51	119.89	188.4	85.64	68.51	34.26	85.64	119.89	-17.13	-342.55	-496.7	137.02	-188.4
46	119.89	256.91	119.89	-17.13	85.64	154.15	68.51	34.26	0	119.89	171.28	-102.77	-376.81	-445.32	171.28	-171.28
47	34.26	137.02	0	-51.38	34.26	171.28	0	0	0	85.64	119.89	-205.53	-393.93	-393.93	17.13	-291.17
48	0	34.26	-17.13	-34.26	-17.13	205.53	-17.13	-34.26	68.51	17.13	68.51	-188.4	-376.81	-256.91	-34.26	-291.17
49	0	-17.13	34.26	137.02	0	376.81	256.91	205.53	393.93	85.64	119.89	102.77	68.51	239.79	-256.91	-34.26
50	0	0	68.51	154.15	0	411.06	376.81	291.17	393.93	188.4	188.4	188.4	239.79	393.93	-205.53	85.64
51	-34.26	-34.26	68.51	119.89	-102.77	428.19	496.7	496.7	376.81	308.3	188.4	171.28	445.32	599.46	0	274.04
52	-205.53	-51.38	34.26	119.89	-205.53	308.3	411.06	496.7	342.55	274.04	154.15	85.64	462.44	633.72	51.38	325.42
53	-376.81	-342.55	0	119.89	-359.68	17.13	51.38	359.68	359.68	205.53	119.89	0	428.19	582.34	205.53	325.42
54	-393.93	-411.06	-17.13	85.64	-359.68	-119.89	-85.64	256.91	342.55	188.4	119.89	17.13	325.42	445.32	325.42	274.04
55	-291.17	-479.57	-68.51	17.13	-222.66	-274.04	-171.28	85.64	274.04	256.91	205.53	154.15	188.4	171.28	530.95	171.28
56	-239.79	-445.32	-102.77	17.13	-154.15	-239.79	-102.77	85.64	222.66	256.91	205.53	239.79	119.89	51.38	616.59	137.02
57	-222.66	-239.79	-85.64	-17.13	-137.02	0	119.89	205.53	137.02	205.53	239.79	308.3	0	0	582.34	34.26
58	-205.53	-137.02	17.13	17.13	-102.77	85.64	205.53	274.04	137.02	188.4	256.91	376.81	0	0	496.7	17.13
59	-85.64	0	205.53	154.15	34.26	376.81	479.57	428.19	205.53	274.04	393.93	530.95	51.38	17.13	393.93	34.26
60	0	0	256.91	171.28	119.89	513.83	616.59	496.7	239.79	325.42	445.32	599.46	119.89	34.26	342.55	51.38
61	68.51	137.02	274.04	171.28	119.89	736.48	787.87	548.08	154.15	359.68	513.83	599.46	154.15	34.26	154.15	137.02
62	68.51	239.79	239.79	154.15	51.38	770.74	770.74	530.95	85.64	325.42	513.83	548.08	154.15	34.26	85.64	239.79
63	34.26	376.81	239.79	171.28	-17.13	719.36	599.46	496.7	119.89	393.93	548.08	633.72	291.17	239.79	188.4	599.46
64	0	359.68	274.04	188.4	-17.13	650.85	548.08	530.95	188.4	479.57	633.72	736.48	428.19	393.93	359.68	804.99
65	0	205.53	239.79	119.89	0	616.59	839.25	667.97	274.04	667.97	890.63	1096.16	890.63	804.99	890.63	1267.44
66	0	256.91	188.4	85.64	51.38	667.97	924.89	702.23	205.53	736.48	959.14	1147.54	993.4	873.5	1010.52	1353.07
67	119.89	445.32	119.89	34.26	188.4	770.74	907.76	667.97	171.28	839.25	1027.65	1216.05	1096.16	924.89	1250.31	1370.2
68	154.15	513.83	137.02	68.51	188.4	787.87	856.38	685.1	188.4	873.5	1027.65	1198.93	1044.78	890.63	1318.82	1284.56
69	154.15	428.19	188.4	137.02	34.26	633.72	736.48	616.59	205.53	787.87	890.63	976.27	804.99	633.72	1147.54	907.76
70	137.02	359.68	239.79	154.15	-34.26	548.08	667.97	565.21	188.4	685.1	787.87	787.87	599.46	445.32	976.27	685.1
71	154.15	239.79	137.02	119.89	34.26	393.93	359.68	256.91	51.38	479.57	513.83	274.04	137.02	154.15	633.72	376.81
72	154.15	256.91	85.64	68.51	137.02	359.68	171.28	68.51	68.51	359.68	376.81	34.26	0	85.64	462.44	308.3
73	137.02	376.81	17.13	17.13	188.4	274.04	-34.26	-102.77	154.15	137.02	137.02	-222.66	-137.02	68.51	102.77	188.4
74	119.89	445.32	0	0	154.15	239.79	-85.64	-119.89	205.53	34.26	85.64	-256.91	-137.02	68.51	-17.13	102.77
75	137.02	530.95	154.15	188.4	68.51	376.81	85.64	68.51	274.04	68.51	137.02	-102.77	17.13	68.51	0	102.77
76	188.4	565.21	291.17	308.3	85.64	479.57	205.53	222.66	256.91	154.15	188.4	0	85.64	119.89	137.02	222.66
77	239.79	599.46	445.32	428.19	154.15	565.21	291.17	445.32	308.3	188.4	205.53	137.02	308.3	137.02	308.3	479.57
78	205.53	565.21	428.19	428.19	154.15	530.95	325.42	513.83	359.68	85.64	171.28	274.04	376.81	119.89	256.91	548.08
79	119.89	513.83	393.93	359.68	137.02	462.44	445.32	633.72	428.19	34.26	205.53	599.46	530.95	119.89	119.89	496.7
80	119.89	565.21	411.06	325.42	137.02	513.83	616.59	667.97	445.32	119.89	291.17	804.99	599.46	171.28	102.77	445.32
81	274.04	565.21	291.17	256.91	308.3	856.38	804.99	685.1	325.42	445.32	616.59	1010.52	719.36	445.32	393.93	274.04
82	274.04	479.57	205.53	171.28	342.55	804.99	685.1	633.72	291.17	479.57	599.46	890.63	685.1	513.83	479.57	256.91
83	154.15	274.04	0	0	154.15	428.19	342.55	342.55	119.89	308.3	325.42	530.95	462.44	479.57	393.93	256.91
84	85.64	256.91	0	-17.13	17.13	188.4	137.02	188.4	85.64	171.28	171.28	325.42	325.42	376.81	256.91	256.91
85	34.26	188.4	34.26	51.38	-51.38	-137.02	-137.02	-102.77	-17.13	-17.13	-85.64	-85.64	-17.13	119.89	0	102.77
86	34.26	188.4	85.64	85.64	-51.38	-222.66	-222.66	-256.91	0	-119.89	-222.66	-308.3	-205.53	-34.26	-68.51	-51.38
87	-17.13	119.89	68.51	51.38	-102.77	-376.81	-359.68	-462.44	-137.02	-239.79	-376.81	-702.23	-616.59	-376.81	-171.28	-496.7
88	-17.13	85.64	0	-34.26	-171.28	-445.32	-445.32	-565.21	-222.66	-256.91	-411.06	-839.25	-736.48	-479.57	-205.53	-685.1
89	-85.64	17.13	-137.02	-102.77	-274.04	-462.44	-582.34	-582.34	-222.66	-274.04	-445.32	-890.63	-616.59	-393.93	-222.66	-753.61
90	-119.89	-102.77	-256.91	-171.28	-256.91	-479.57	-702.23	-496.7	-171.28	-274.04	-445.32	-822.12	-462.44	-291.17	-256.91	-685.1
91	-239.79	-256.91	-325.42	-188.4	-274.04	-513.83	-702.23	-222.66	0	-359.68	-513.83	-616.59	-51.38	-85.64	-393.93	-530.95
92	-325.42	-325.42	-325.42	-205.53	-342.55	-599.46	-650.85	-119.89	0	-376.81	-530.95	-462.44	119.89	0	-462.44	-462.44
93	-376.81	-445.32	-325.42	-239.79	-376.81	-685.1	-496.7	-34.26	-17.13	-342.55	-411.06	-51.38	530.95	239.79	-411.06	-239.79
94	-359.68	-496.7	-376.81	-274.04	-291.17	-616.59	-393.93	-34.26	-119.89	-222.66	-256.91	137.02	667.97	359.68	-291.17	-85.64
95	-274.04	-599.46	-530.95	-462.44	-17.13	-274.04	-137.02	-34.26	-376.81	17.13	51.38	445.32	719.36	376.81	0	85.64
96	-239.79	-599.46	-599.46	-565.21	51.38	-137.02	-34.26	-102.77	-513.83	85.64	171.28	479.57	565.21	274.04	119.89	85.64
97	-256.91	-530.95	-736.48	-702.23	17.13	-154.15	-102.77	-393.93	-650.85	188.4	256.91	137.02	34.26	-51.38	308.3	-17.13
98	-274.04	-513.83	-770.74	-719.36	0	-256.91	-222.66	-513.83	-650.85	188.4	239.79	0	-51.38	-102.77	359.68	-17.13
99	-256.91	-445.32	-753.61	-719.36	-51.38	-393.93	-359.68	-650.85	-633.72	51.38	68.51	-154.15	-256.91	-154.15	325.42	-17.13
100	-222.66	-376.81	-702.23	-650.85	-51.38	-445.32	-342.55	-685.1	-599.46	-34.26	-34.26	-256.91	-325.42	-154.15	222.66	-34.26
101	-154.15	-274.04	-462.44	-462.44	-34.26	-496.7	-205.53	-616.59	-462.44	-256.91	-256.91	-376.81	-291.17	-85.64	0	0
102	-119.89	-205.53	-342.55	-342.55	51.38	-479.57	-119.89	-565.21	-376.81	-256.91	-274.04	-359.68	-222.66	-34.26	0	119.89
103	-34.26	-85.64	-137.02	-137.02	85.64	-359.68	-34.26	-376.81	-239.79	-171.28	-205.53	-222.66	0	188.4	34.26	496.7
104	-51.38	-34.26	-68.51	-51.38	0	-325.42	34.26	-274.04	-171.28	-205.53	-239.79	-154.15	85.64	256.91	17.13	599.46
105	-222.66	-154.15	17.13	0	-291.17	-513.83	-17.13	-205.53	0	-496.7	-530.95	-137.02	188.4	291.17	-359.68	496.7
106	-342.55	-274.04	-17.13	34.26	-411.06	-650.85	-119.89	-239.79	68.51	-616.59	-650.85	-154.15	205.53	308.3	-530.95	376.81
107	-445.32	-445.32	0	137.02	-342.55	-787.87	-342.55	-256.91	188.4	-565.21	-616.59	-102.77	256.91	308.3	-582.34	274.04
108	-359.68	-393.93	51.38	154.15	-205.53	-719.36	-325.42	-239.79	222.66	-445.32	-496.7	0	274.04	325.42	-513.83	274.04
109	-102.77	-137.02	102.77	205.53	-51.38	-411.06	-119.89	-119.89	137.02	-188.4	-137.02	119.89	274.04	256.91	-291.17	274.04
110	17.13	0	188.4	274.04	-51.38	-171.28	17.13	-51.38	119.89	-85.64	17.13	188.4	239.79	188.4	-102.77	188.4
111	17.13	85.64	239.79	274.04	0	154.15	102.77	17.13	119.89	51.38	188.4	188.4	17.13	0	205.53	0
112	-17.13	17.13	205.53	222.66	34.26	274.04	119.89	17.13	51.38	154.15	256.91	188.4	-102.77	-17.13	411.06	-102.77
113	-222.66	-222.66	-17.13	-51.38	0	154.15	17.13	-119.89	-137.02	205.53	308.3	85.64	-325.42	-205.53	325.42	-119.89
114	-239.79	-291.17	0	-85.64	-17.13	85.64	34.26	-137.02	-171.28	171.28	239.79	34.26	-308.3	-205.53	154.15	-51.38
115	-222.66	-205.53	0	0	-17.13	85.64	188.4	-17.13	-102.77	0	34.26	-68.51	-239.79	-188.4	-188.4	17.13
116	-154.15	-154.15	17.13	-34.26	-34.26	188.4	274.04	17.13	-34.26	-85.64	-68.51	-102.77	-222.66	-171.28	-325.42	17.13
117	-102.77	-137.02	-34.26	-34.26	-17.13	188.4	359.68	68.51	-34.26	-325.42	-376.81	-171.28	-205.53	-154.15	-582.34	-34.26
118	-119.89	-239.79	-68.51	-102.77	-51.38	102.77	308.3	34.26	-34.26	-428.19	-479.57	-188.4	-171.28	-154.15	-702.23	0
119	-137.02	-411.06	-17.13	0	-119.89	-102.77	171.28	34.26	-34.26	-530.95	-599.46	-154.15	-102.77	-222.66	-822.12	-102.77
120	-119.89	-411.06	51.38	68.51	-85.64	-119.89	171.28	119.89	68.51	-513.83	-548.08	-102.77	-34.26	-239.79	-719.36	-154.15
121	0	-154.15	308.3	308.3	0	51.38	325.42	411.06	308.3	-342.55	-325.42	17.13	0	-205.53	-411.06	-239.79
122	17.13	0	359.68	393.93	17.13	205.53	445.32	530.95	359.68	-205.53	-171.28	68.51	0	-154.15	-205.53	-274.04
123	85.64	119.89	376.81	376.81	119.89	393.93	479.57	496.7	239.79	0	34.26	51.38	-102.77	-222.66	0	-462.44
124	137.02	85.64	325.42	308.3	171.28	393.93	359.68	325.42	119.89	68.51	68.51	-17.13	-274.04	-359.68	17.13	-616.59
125	239.79	68.51	291.17	205.53	154.15	274.04	-34.26	-17.13	-34.26	137.02	85.64	-359.68	-685.1	-650.85	17.13	-822.12
126	239.79	68.51	274.04	188.4	85.64	171.28	-119.89	-137.02	-85.64	137.02	119.89	-462.44	-753.61	-702.23	119.89	-770.74
127	102.77	0	205.53	171.28	0	34.26	-222.66	-222.66	-85.64	137.02	205.53	-462.44	-650.85	-496.7	411.06	-411.06
128	-17.13	-34.26	154.15	154.15	0	-34.26	-239.79	-239.79	-85.64	154.15	274.04	-393.93	-513.83	-291.17	530.95	-171.28
129	-85.64	-256.91	-17.13	34.26	68.51	-51.38	-411.06	-291.17	-17.13	171.28	308.3	-137.02	-34.26	85.64	359.68	428.19
130	0	-239.79	-34.26	17.13	119.89	-51.38	-376.81	-256.91	0	188.4	274.04	0	85.64	171.28	239.79	633.72
131	102.77	-154.15	68.51	137.02	51.38	0	-154.15	-51.38	137.02	137.02	171.28	428.19	428.19	308.3	154.15	907.76
132	102.77	-137.02	85.64	188.4	-34.26	-34.26	-34.26	-34.26	171.28	68.51	85.64	616.59	548.08	359.68	137.02	924.89
133	-17.13	-137.02	154.15	205.53	-171.28	-34.26	17.13	-17.13	137.02	-51.38	-34.26	719.36	548.08	325.42	34.26	667.97
134	-17.13	-154.15	102.77	119.89	-154.15	0	34.26	-34.26	85.64	-102.77	-102.77	616.59	445.32	274.04	-17.13	479.57
135	85.64	0	85.64	0	68.51	17.13	171.28	119.89	119.89	-119.89	-154.15	256.91	154.15	51.38	-222.66	68.51
136	222.66	137.02	85.64	0	239.79	119.89	222.66	188.4	119.89	-85.64	-137.02	17.13	0	-34.26	-274.04	-102.77
137	376.81	291.17	137.02	68.51	274.04	274.04	188.4	68.51	34.26	-102.77	-171.28	-411.06	-445.32	-376.81	-393.93	-565.21
138	342.55	274.04	137.02	85.64	137.02	291.17	119.89	0	-17.13	-119.89	-154.15	-633.72	-667.97	-513.83	-411.06	-719.36
139	102.77	137.02	68.51	68.51	-17.13	239.79	17.13	-85.64	0	-51.38	-51.38	-685.1	-804.99	-582.34	-376.81	-685.1
140	0	17.13	68.51	17.13	34.26	188.4	-17.13	-17.13	17.13	0	-34.26	-633.72	-736.48	-479.57	-239.79	-496.7
141	34.26	17.13	0	0	256.91	154.15	17.13	51.38	102.77	17.13	17.13	-479.57	-428.19	-205.53	0	-85.64
142	68.51	0	-34.26	0	256.91	137.02	-34.26	68.51	137.02	-17.13	0	-445.32	-256.91	-51.38	17.13	17.13
143	102.77	68.51	34.26	68.51	51.38	68.51	-51.38	119.89	137.02	-154.15	-188.4	-256.91	51.38	188.4	-171.28	325.42
144	68.51	102.77	85.64	85.64	0	17.13	0	188.4	188.4	-154.15	-205.53	-51.38	325.42	376.81	-222.66	548.08
145	-17.13	0	137.02	119.89	-154.15	-17.13	171.28	479.57	325.42	-51.38	-137.02	513.83	1079.03	907.76	-51.38	1198.93
146	-17.13	-51.38	119.89	137.02	-154.15	-85.64	137.02	428.19	325.42	-85.64	-154.15	582.34	1113.29	924.89	-51.38	1216.05
147	17.13	-102.77	85.64	137.02	-102.77	-291.17	-17.13	205.53	205.53	-154.15	-239.79	411.06	839.25	719.36	-119.89	873.5
148	-17.13	-119.89	17.13	85.64	-102.77	-359.68	-51.38	154.15	119.89	-137.02	-222.66	308.3	616.59	530.95	-85.64	650.85
149	0	-68.51	-51.38	-17.13	-51.38	-376.81	-154.15	17.13	17.13	-17.13	-137.02	85.64	205.53	171.28	68.51	205.53
150	0	0	-154.15	-85.64	-34.26	-325.42	-205.53	17.13	-34.26	0	-154.15	17.13	0	-34.26	137.02	0
151	-17.13	51.38	-205.53	-205.53	-17.13	-137.02	-222.66	-188.4	-137.02	-85.64	-205.53	-308.3	-496.7	-376.81	188.4	-393.93
152	-17.13	85.64	-171.28	-274.04	0	-17.13	-205.53	-256.91	-171.28	-102.77	-205.53	-445.32	-736.48	-565.21	154.15	-582.34
153	-17.13	85.64	-222.66	-274.04	-17.13	171.28	-137.02	-222.66	-171.28	-34.26	-119.89	-530.95	-942.01	-719.36	102.77	-685.1
154	0	85.64	-256.91	-291.17	-17.13	239.79	-68.51	-119.89	-137.02	0	-51.38	-462.44	-839.25	-685.1	51.38	-565.21
155	-17.13	154.15	-291.17	-274.04	0	256.91	17.13	51.38	0	17.13	-17.13	-85.64	-376.81	-342.55	17.13	-171.28
156	-17.13	239.79	-205.53	-239.79	0	239.79	119.89	137.02	17.13	17.13	0	119.89	-85.64	-119.89	51.38	0
157	-17.13	291.17	0	-51.38	-85.64	171.28	291.17	256.91	154.15	0	17.13	411.06	393.93	274.04	171.28	188.4
158	-34.26	239.79	85.64	0	-205.53	119.89	325.42	291.17	188.4	0	17.13	496.7	565.21	411.06	154.15	291.17
159	-85.64	119.89	188.4	137.02	-239.79	0	256.91	325.42	171.28	17.13	17.13	548.08	770.74	565.21	51.38	445.32
160	-85.64	119.89	188.4	137.02	-137.02	-119.89	154.15	291.17	137.02	51.38	17.13	565.21	804.99	599.46	51.38	530.95
161	-137.02	-34.26	-17.13	-102.77	-85.64	-496.7	-342.55	-102.77	-154.15	17.13	-51.38	393.93	565.21	428.19	119.89	393.93
162	-239.79	-171.28	-171.28	-239.79	-239.79	-633.72	-530.95	-325.42	-256.91	-51.38	-205.53	188.4	393.93	325.42	68.51	188.4
163	-462.44	-479.57	-496.7	-479.57	-462.44	-873.5	-822.12	-616.59	-291.17	-274.04	-479.57	-205.53	-34.26	68.51	-119.89	-102.77
164	-479.57	-479.57	-548.08	-530.95	-411.06	-873.5	-839.25	-633.72	-222.66	-342.55	-565.21	-342.55	-171.28	0	-205.53	-205.53
165	-325.42	-239.79	-445.32	-445.32	-205.53	-582.34	-599.46	-445.32	-85.64	-376.81	-599.46	-496.7	-496.7	-239.79	-342.55	-359.68
166	-239.79	-137.02	-308.3	-308.3	-154.15	-325.42	-376.81	-291.17	-34.26	-411.06	-616.59	-530.95	-633.72	-376.81	-393.93	-445.32
167	-171.28	-34.26	-171.28	-171.28	-171.28	0	0	-102.77	-51.38	-496.7	-633.72	-633.72	-736.48	-513.83	-428.19	-582.34
168	-154.15	17.13	-171.28	-154.15	-171.28	68.51	68.51	-34.26	-51.38	-462.44	-616.59	-616.59	-702.23	-496.7	-342.55	-496.7
169	-137.02	68.51	-154.15	-154.15	-137.02	137.02	205.53	17.13	17.13	-325.42	-411.06	-428.19	-445.32	-291.17	-51.38	-137.02
170	-171.28	51.38	-137.02	-102.77	-102.77	137.02	188.4	51.38	17.13	-222.66	-308.3	-342.55	-291.17	-222.66	0	34.26
171	-154.15	-85.64	34.26	68.51	-171.28	51.38	188.4	68.51	68.51	-154.15	-154.15	-188.4	-154.15	-137.02	34.26	291.17
172	-205.53	-154.15	85.64	119.89	-205.53	0	171.28	68.51	85.64	-102.77	-102.77	-85.64	-119.89	-102.77	68.51	308.3
173	-171.28	-137.02	137.02	154.15	-188.4	-102.77	154.15	85.64	119.89	-34.26	-34.26	0	-17.13	0	68.51	308.3
174	-222.66	-102.77	85.64	119.89	-205.53	-154.15	119.89	102.77	119.89	-17.13	0	34.26	34.26	-17.13	34.26	291.17
175	-222.66	-85.64	51.38	102.77	-222.66	-171.28	51.38	119.89	85.64	17.13	-17.13	-51.38	68.51	17.13	-102.77	119.89
176	-205.53	-85.64	119.89	119.89	-154.15	-171.28	51.38	85.64	17.13	0	0	-137.02	34.26	-34.26	-205.53	17.13
177	137.02	171.28	274.04	188.4	274.04	0	34.26	171.28	68.51	274.04	274.04	0	171.28	34.26	-119.89	17.13
178	239.79	291.17	308.3	222.66	342.55	102.77	17.13	239.79	154.15	342.55	376.81	17.13	256.91	68.51	-17.13	-17.13
179	342.55	445.32	342.55	274.04	256.91	325.42	85.64	325.42	274.04	376.81	462.44	0	239.79	85.64	17.13	17.13
180	342.55	513.83	376.81	325.42	239.79	393.93	205.53	376.81	274.04	359.68	428.19	0	171.28	85.64	34.26	-34.26
181	428.19	685.1	496.7	359.68	325.42	685.1	548.08	513.83	274.04	359.68	393.93	34.26	171.28	154.15	85.64	17.13
182	479.57	787.87	530.95	376.81	428.19	839.25	719.36	616.59	291.17	359.68	393.93	119.89	274.04	239.79	51.38	154.15
183	513.83	890.63	548.08	393.93	496.7	993.4	770.74	753.61	325.42	256.91	325.42	239.79	445.32	308.3	0	393.93
184	479.57	890.63	496.7	376.81	428.19	907.76	685.1	736.48	274.04	188.4	274.04	188.4	445.32	291.17	-102.77	411.06
185	342.55	736.48	393.93	359.68	205.53	616.59	548.08	599.46	119.89	154.15	205.53	68.51	376.81	188.4	-205.53	274.04
186	308.3	599.46	393.93	325.42	154.15	479.57	513.83	496.7	68.51	205.53	256.91	34.26	308.3	154.15	-239.79	205.53
187	274.04	325.42	274.04	239.79	154.15	411.06	479.57	291.17	85.64	376.81	376.81	17.13	205.53	119.89	-239.79	119.89
188	239.79	239.79	171.28	137.02	171.28	428.19	376.81	205.53	85.64	376.81	393.93	17.13	154.15	85.64	-239.79	17.13
189	137.02	68.51	-34.26	0	154.15	325.42	85.64	51.38	17.13	205.53	291.17	0	34.26	85.64	-291.17	-171.28
190	68.51	0	-119.89	-34.26	85.64	205.53	-34.26	-34.26	0	137.02	205.53	-17.13	17.13	119.89	-291.17	-274.04
191	-17.13	-154.15	-171.28	-51.38	0	-34.26	-102.77	-34.26	0	34.26	51.38	-34.26	17.13	119.89	-274.04	-359.68
192	-34.26	-274.04	-188.4	-102.77	-34.26	-51.38	-102.77	-34.26	0	0	0	-85.64	0	68.51	-274.04	-393.93
193	-119.89	-582.34	-445.32	-393.93	17.13	-154.15	-205.53	-171.28	-222.66	-102.77	-119.89	-342.55	-274.04	-171.28	-308.3	-753.61
194	-102.77	-616.59	-496.7	-428.19	51.38	-205.53	-291.17	-274.04	-325.42	-119.89	-137.02	-376.81	-376.81	-274.04	-308.3	-839.25
195	-17.13	-565.21	-411.06	-342.55	34.26	-274.04	-445.32	-462.44	-342.55	-205.53	-171.28	-359.68	-393.93	-376.81	-291.17	-719.36
196	17.13	-496.7	-376.81	-291.17	0	-342.55	-513.83	-548.08	-291.17	-256.91	-222.66	-342.55	-342.55	-342.55	-291.17	-599.46
197	-17.13	-462.44	-411.06	-291.17	-85.64	-496.7	-650.85	-736.48	-274.04	-376.81	-291.17	-325.42	-222.66	-222.66	-359.68	-393.93
198	-51.38	-496.7	-462.44	-376.81	-51.38	-582.34	-667.97	-787.87	-325.42	-376.81	-291.17	-325.42	-171.28	-154.15	-462.44	-342.55
199	-205.53	-599.46	-462.44	-376.81	-34.26	-650.85	-650.85	-787.87	-342.55	-325.42	-291.17	-274.04	-85.64	-137.02	-616.59	-256.91
200	-171.28	-650.85	-393.93	-342.55	-34.26	-719.36	-633.72	-753.61	-342.55	-308.3	-274.04	-256.91	-51.38	-137.02	-719.36	-205.53
201	-171.28	-736.48	-342.55	-205.53	-137.02	-804.99	-616.59	-633.72	-222.66	-325.42	-274.04	-137.02	17.13	-85.64	-770.74	-102.77
202	-137.02	-702.23	-291.17	-137.02	-205.53	-804.99	-530.95	-565.21	-154.15	-376.81	-256.91	0	85.64	0	-736.48	-51.38
203	-137.02	-513.83	-205.53	-51.38	-171.28	-599.46	-274.04	-291.17	-17.13	-342.55	-222.66	119.89	256.91	239.79	-633.72	-34.26
204	-119.89	-393.93	-154.15	-34.26	-137.02	-445.32	-188.4	-205.53	17.13	-359.68	-222.66	154.15	325.42	274.04	-565.21	0
205	-119.89	-359.68	-102.77	-68.51	-85.64	-291.17	-256.91	-256.91	-85.64	-256.91	-102.77	137.02	222.66	68.51	-445.32	0
206	-137.02	-411.06	-137.02	-102.77	-85.64	-291.17	-325.42	-325.42	-222.66	-154.15	-34.26	171.28	102.77	0	-291.17	0
207	-171.28	-445.32	-205.53	-188.4	-137.02	-291.17	-359.68	-445.32	-393.93	0	85.64	188.4	-17.13	-85.64	85.64	171.28
208	-137.02	-376.81	-222.66	-256.91	-119.89	-239.79	-291.17	-411.06	-376.81	34.26	137.02	222.66	-34.26	-51.38	274.04	274.04
209	-17.13	-188.4	-325.42	-428.19	-51.38	-171.28	-376.81	-445.32	-325.42	-68.51	-68.51	-51.38	-102.77	-154.15	222.66	137.02
210	0	-171.28	-325.42	-393.93	-102.77	-205.53	-462.44	-513.83	-325.42	-154.15	-154.15	-171.28	-222.66	-205.53	119.89	51.38
211	0	-85.64	-154.15	-154.15	-119.89	-239.79	-393.93	-513.83	-274.04	-154.15	-171.28	-205.53	-291.17	-239.79	68.51	34.26
212	68.51	-51.38	-34.26	-17.13	-51.38	-171.28	-205.53	-411.06	-222.66	-137.02	-171.28	-154.15	-256.91	-154.15	34.26	68.51
213	102.77	-34.26	102.77	0	51.38	-51.38	34.26	-119.89	-119.89	-171.28	-222.66	-102.77	-137.02	-34.26	-137.02	17.13
214	85.64	-17.13	171.28	17.13	68.51	-51.38	85.64	17.13	-68.51	-188.4	-239.79	-51.38	-51.38	-17.13	-291.17	-17.13
215	68.51	17.13	274.04	85.64	0	-85.64	137.02	154.15	51.38	-154.15	-154.15	119.89	137.02	68.51	-496.7	-85.64
216	85.64	137.02	342.55	256.91	0	0	222.66	256.91	154.15	-85.64	-34.26	291.17	291.17	188.4	-411.06	0
217	188.4	376.81	411.06	445.32	-34.26	154.15	393.93	411.06	274.04	0	85.64	513.83	513.83	325.42	-154.15	256.91
218	205.53	411.06	376.81	428.19	-34.26	239.79	393.93	411.06	239.79	34.26	137.02	496.7	513.83	308.3	-17.13	376.81
219	154.15	376.81	188.4	171.28	34.26	274.04	239.79	308.3	85.64	119.89	205.53	393.93	308.3	171.28	154.15	411.06
220	137.02	325.42	154.15	85.64	119.89	274.04	171.28	239.79	17.13	205.53	308.3	376.81	239.79	137.02	291.17	428.19
221	119.89	171.28	68.51	17.13	256.91	359.68	154.15	34.26	-17.13	376.81	445.32	376.81	171.28	188.4	599.46	513.83
222	85.64	68.51	-34.26	-34.26	239.79	359.68	119.89	-34.26	-51.38	359.68	411.06	308.3	137.02	171.28	599.46	565.21
223	-17.13	-85.64	-274.04	-291.17	-51.38	154.15	-34.26	-256.91	-222.66	137.02	119.89	17.13	0	0	308.3	548.08
224	-51.38	-85.64	-359.68	-393.93	-205.53	34.26	-137.02	-291.17	-274.04	34.26	0	-51.38	-102.77	-51.38	137.02	445.32
225	34.26	239.79	-85.64	-154.15	51.38	68.51	-102.77	-102.77	-205.53	34.26	-17.13	-85.64	-119.89	-102.77	0	154.15
226	68.51	274.04	17.13	-17.13	171.28	137.02	-17.13	0	-119.89	17.13	-17.13	-17.13	-102.77	-85.64	34.26	85.64
227	17.13	256.91	17.13	0	34.26	137.02	-34.26	17.13	-85.64	-17.13	-17.13	0	-137.02	-137.02	85.64	-85.64
228	17.13	256.91	0	-51.38	-34.26	85.64	-34.26	17.13	-102.77	34.26	51.38	0	-171.28	-154.15	137.02	-239.79
229	119.89	445.32	17.13	-85.64	68.51	256.91	154.15	154.15	-34.26	376.81	393.93	188.4	-137.02	-85.64	428.19	-479.57
230	222.66	582.34	171.28	17.13	308.3	445.32	308.3	291.17	34.26	513.83	565.21	325.42	-17.13	0	616.59	-479.57
231	308.3	650.85	479.57	359.68	530.95	804.99	548.08	479.57	239.79	565.21	633.72	496.7	188.4	154.15	787.87	-256.91
232	274.04	582.34	496.7	428.19	393.93	787.87	513.83	428.19	274.04	428.19	479.57	428.19	188.4	205.53	702.23	-154.15
233	205.53	188.4	119.89	154.15	171.28	359.68	188.4	411.06	171.28	359.68	411.06	393.93	479.57	393.93	137.02	496.7
234	137.02	119.89	85.64	137.02	119.89	308.3	154.15	359.68	154.15	325.42	393.93	411.06	376.81	291.17	85.64	496.7
235	102.77	-34.26	85.64	68.51	68.51	256.91	85.64	256.91	85.64	188.4	205.53	325.42	205.53	137.02	-34.26	445.32
236	102.77	-17.13	85.64	34.26	51.38	239.79	85.64	188.4	51.38	85.64	85.64	239.79	137.02	34.26	-102.77	445.32
237	85.64	0	34.26	0	68.51	291.17	171.28	119.89	-34.26	0	0	137.02	119.89	-17.13	-17.13	513.83
238	34.26	34.26	0	-51.38	68.51	359.68	205.53	85.64	-17.13	0	17.13	154.15	154.15	0	85.64	565.21
239	-17.13	137.02	-137.02	-154.15	17.13	308.3	205.53	34.26	-137.02	0	17.13	154.15	205.53	68.51	359.68	616.59
240	-17.13	137.02	-205.53	-205.53	-17.13	205.53	85.64	-34.26	-171.28	0	-34.26	68.51	171.28	119.89	359.68	565.21
241	-17.13	-34.26	-34.26	0	-34.26	-17.13	-102.77	-51.38	-102.77	-119.89	-137.02	-359.68	-34.26	0	-85.64	188.4
242	-17.13	17.13	51.38	34.26	0	-34.26	-68.51	-34.26	0	-119.89	-171.28	-496.7	-137.02	-17.13	-291.17	34.26
243	17.13	222.66	239.79	119.89	34.26	68.51	0	-34.26	17.13	-51.38	-205.53	-633.72	-256.91	-119.89	-565.21	-256.91
244	34.26	291.17	239.79	154.15	0	68.51	0	-34.26	34.26	-34.26	-205.53	-633.72	-274.04	-137.02	-633.72	-291.17
245	68.51	342.55	222.66	154.15	-205.53	0	-102.77	-85.64	17.13	-85.64	-137.02	-411.06	-154.15	-68.51	-513.83	-137.02
246	34.26	308.3	239.79	188.4	-205.53	-34.26	-51.38	-51.38	17.13	-51.38	-51.38	-239.79	-51.38	0	-342.55	0
247	68.51	428.19	376.81	291.17	-17.13	17.13	-17.13	0	68.51	34.26	68.51	34.26	34.26	68.51	0	205.53
248	119.89	548.08	445.32	308.3	68.51	0	34.26	51.38	102.77	68.51	119.89	119.89	34.26	68.51	154.15	256.91
249	188.4	548.08	393.93	274.04	85.64	17.13	17.13	34.26	154.15	-17.13	51.38	171.28	68.51	0	239.79	205.53
250	119.89	393.93	359.68	239.79	0	-85.64	-34.26	34.26	171.28	-34.26	0	171.28	85.64	0	239.79	205.53
251	-51.38	17.13	188.4	205.53	-291.17	-274.04	-85.64	0	188.4	-102.77	-51.38	171.28	119.89	85.64	188.4	102.77
252	-154.15	-34.26	222.66	256.91	-274.04	-256.91	0	119.89	205.53	-137.02	-85.64	137.02	68.51	85.64	85.64	-34.26
253	-51.38	68.51	308.3	342.55	-17.13	-34.26	188.4	308.3	222.66	-68.51	-102.77	-34.26	-34.26	17.13	-102.77	-291.17
254	-17.13	102.77	239.79	291.17	85.64	34.26	239.79	325.42	222.66	-102.77	-119.89	-137.02	-171.28	-137.02	-222.66	-479.57
255	-17.13	0	17.13	68.51	68.51	239.79	119.89	188.4	137.02	-85.64	-137.02	-359.68	-393.93	-393.93	-462.44	-753.61
256	-17.13	-34.26	-51.38	0	-34.26	256.91	51.38	102.77	85.64	-34.26	-102.77	-393.93	-462.44	-411.06	-530.95	-804.99
257	102.77	-51.38	-34.26	-51.38	256.91	445.32	239.79	222.66	102.77	171.28	137.02	-205.53	-154.15	-34.26	-393.93	-291.17
258	119.89	-51.38	-17.13	-17.13	359.68	530.95	359.68	308.3	119.89	239.79	188.4	-85.64	0	154.15	-359.68	-34.26
259	-17.13	-154.15	17.13	0	239.79	530.95	428.19	393.93	137.02	171.28	154.15	17.13	239.79	239.79	-411.06	188.4
260	-51.38	-171.28	-17.13	0	34.26	479.57	359.68	325.42	85.64	119.89	85.64	0	239.79	171.28	-530.95	188.4
261	-137.02	-68.51	-34.26	0	-119.89	325.42	205.53	222.66	17.13	-34.26	-34.26	-34.26	171.28	68.51	-702.23	154.15
262	-119.89	-17.13	-102.77	-102.77	-51.38	308.3	188.4	205.53	0	0	-85.64	-34.26	154.15	85.64	-702.23	154.15
263	-85.64	-34.26	-239.79	-239.79	51.38	308.3	308.3	308.3	0	-34.26	-51.38	17.13	205.53	154.15	-530.95	154.15
264	-85.64	-85.64	-256.91	-256.91	17.13	325.42	376.81	376.81	17.13	17.13	0	85.64	239.79	188.4	-411.06	137.02
265	-119.89	-102.77	-51.38	-119.89	-102.77	325.42	411.06	376.81	51.38	34.26	68.51	239.79	205.53	188.4	-137.02	154.15
266	-119.89	-51.38	68.51	0	-119.89	359.68	411.06	376.81	51.38	34.26	137.02	308.3	188.4	171.28	0	188.4
267	-137.02	17.13	256.91	68.51	-17.13	393.93	376.81	325.42	-17.13	85.64	256.91	479.57	171.28	119.89	188.4	308.3
268	-137.02	68.51	205.53	51.38	17.13	411.06	376.81	308.3	-102.77	154.15	325.42	548.08	188.4	68.51	308.3	291.17
269	-34.26	154.15	-34.26	-51.38	137.02	479.57	376.81	239.79	-256.91	325.42	496.7	667.97	239.79	17.13	445.32	137.02
270	0	137.02	-102.77	-119.89	171.28	479.57	308.3	171.28	-291.17	411.06	513.83	719.36	274.04	34.26	496.7	51.38
271	-17.13	-34.26	-239.79	-205.53	171.28	274.04	34.26	0	-359.68	393.93	428.19	685.1	291.17	137.02	428.19	68.51
272	-85.64	-205.53	-222.66	-205.53	137.02	119.89	-102.77	-119.89	-376.81	308.3	376.81	633.72	274.04	171.28	325.42	137.02
273	0	-428.19	-205.53	-137.02	119.89	-137.02	-239.79	-256.91	-256.91	85.64	222.66	359.68	137.02	85.64	-34.26	68.51
274	17.13	-376.81	-222.66	-154.15	137.02	-102.77	-154.15	-222.66	-171.28	34.26	205.53	256.91	85.64	34.26	-34.26	17.13
275	0	-428.19	-376.81	-205.53	137.02	-51.38	-51.38	-171.28	-51.38	34.26	154.15	154.15	85.64	17.13	137.02	34.26
276	-34.26	-582.34	-376.81	-222.66	119.89	-51.38	-68.51	-171.28	-68.51	85.64	171.28	154.15	119.89	68.51	325.42	85.64
277	-102.77	-770.74	-291.17	-205.53	85.64	-102.77	-51.38	-205.53	-137.02	205.53	256.91	171.28	119.89	119.89	548.08	137.02
278	-51.38	-736.48	-274.04	-188.4	137.02	-137.02	17.13	-222.66	-154.15	222.66	308.3	188.4	68.51	85.64	548.08	68.51
279	-34.26	-599.46	-291.17	-239.79	137.02	-188.4	0	-222.66	-137.02	137.02	205.53	68.51	-17.13	-34.26	359.68	-171.28
280	-137.02	-650.85	-342.55	-239.79	68.51	-274.04	17.13	-239.79	-137.02	17.13	102.77	34.26	-68.51	-51.38	256.91	-239.79
281	-393.93	-804.99	-342.55	-205.53	-171.28	-445.32	-137.02	-171.28	-102.77	-85.64	-34.26	17.13	-34.26	0	188.4	-205.53
282	-393.93	-736.48	-308.3	-171.28	-256.91	-462.44	-154.15	-137.02	-102.77	-51.38	0	-17.13	17.13	17.13	154.15	-85.64
283	-85.64	-342.55	-137.02	-51.38	-85.64	-239.79	17.13	0	17.13	0	68.51	205.53	188.4	137.02	119.89	51.38
284	17.13	-154.15	-68.51	-34.26	0	-34.26	188.4	85.64	-17.13	51.38	137.02	342.55	308.3	205.53	85.64	119.89
285	68.51	-34.26	-85.64	-85.64	17.13	137.02	325.42	137.02	0	34.26	102.77	411.06	393.93	239.79	205.53	154.15
286	0	-137.02	-102.77	-85.64	17.13	137.02	256.91	119.89	17.13	17.13	0	325.42	325.42	188.4	274.04	137.02
287	-171.28	-376.81	-119.89	-85.64	-154.15	-51.38	34.26	17.13	51.38	-154.15	-154.15	51.38	85.64	17.13	188.4	34.26
288	-239.79	-411.06	-51.38	0	-171.28	-154.15	-17.13	0	137.02	-171.28	-154.15	-34.26	-34.26	-17.13	102.77	0
289	-102.77	-119.89	17.13	137.02	-34.26	-17.13	34.26	51.38	188.4	34.26	68.51	0	0	0	239.79	-34.26
290	-34.26	17.13	17.13	119.89	0	68.51	137.02	85.64	154.15	154.15	205.53	51.38	51.38	34.26	376.81	0
291	-34.26	0	0	51.38	17.13	154.15	256.91	171.28	85.64	171.28	239.79	154.15	119.89	119.89	599.46	154.15
292	-102.77	0	17.13	34.26	-17.13	68.51	188.4	154.15	68.51	137.02	154.15	137.02	85.64	85.64	616.59	188.4
293	-205.53	-171.28	-34.26	0	-205.53	-137.02	34.26	68.51	17.13	0	-34.26	34.26	34.26	51.38	479.57	171.28
294	-222.66	-239.79	-119.89	-51.38	-239.79	-222.66	-34.26	0	-34.26	-51.38	-51.38	0	0	34.26	325.42	154.15
295	-154.15	-342.55	-274.04	-171.28	-205.53	-171.28	-17.13	-85.64	-34.26	-137.02	-102.77	-34.26	-34.26	-34.26	17.13	34.26
296	-137.02	-359.68	-274.04	-205.53	-137.02	-137.02	0	-85.64	0	-137.02	-102.77	-34.26	-85.64	-34.26	-34.26	-34.26
297	-137.02	-291.17	-171.28	-119.89	-85.64	-119.89	-34.26	-34.26	17.13	-51.38	-85.64	-34.26	-154.15	-154.15	-51.38	-137.02
298	-119.89	-171.28	-154.15	-102.77	-85.64	-137.02	0	-51.38	-34.26	-51.38	-102.77	-102.77	-256.91	-205.53	-17.13	-171.28
299	-17.13	17.13	-154.15	-102.77	-51.38	-222.66	-51.38	-154.15	-154.15	-154.15	-171.28	-256.91	-411.06	-325.42	-34.26	-239.79
300	0	68.51	-102.77	-102.77	-51.38	-222.66	-85.64	-205.53	-222.66	-222.66	-205.53	-291.17	-445.32	-359.68	-68.51	-256.91
301	17.13	-17.13	-34.26	-68.51	-34.26	-171.28	-102.77	-205.53	-239.79	-222.66	-154.15	-291.17	-393.93	-445.32	-51.38	-342.55
302	0	-34.26	-34.26	-68.51	0	-154.15	-154.15	-222.66	-222.66	-137.02	-85.64	-274.04	-393.93	-479.57	0	-376.81
303	85.64	-17.13	-171.28	-137.02	85.64	-102.77	-308.3	-325.42	-171.28	17.13	-34.26	-274.04	-513.83	-616.59	17.13	-496.7
304	137.02	68.51	-291.17	-188.4	119.89	-102.77	-393.93	-428.19	-171.28	17.13	-68.51	-291.17	-582.34	-667.97	-17.13	-513.83
305	102.77	68.51	-256.91	-256.91	-68.51	-171.28	-393.93	-513.83	-325.42	-325.42	-428.19	-428.19	-565.21	-633.72	-325.42	-462.44
306	0	17.13	-171.28	-222.66	-222.66	-256.91	-393.93	-496.7	-393.93	-428.19	-530.95	-496.7	-565.21	-565.21	-376.81	-411.06
307	-51.38	-51.38	-102.77	-171.28	-308.3	-462.44	-462.44	-530.95	-411.06	-513.83	-582.34	-479.57	-496.7	-376.81	-393.93	-205.53
308	-51.38	0	-102.77	-171.28	-205.53	-496.7	-445.32	-565.21	-376.81	-445.32	-513.83	-445.32	-548.08	-376.81	-428.19	-154.15
309	-17.13	68.51	-119.89	-102.77	-51.38	-376.81	-256.91	-428.19	-205.53	-376.81	-462.44	-376.81	-616.59	-462.44	-513.83	-291.17
310	-17.13	51.38	-34.26	-34.26	-51.38	-274.04	-154.15	-274.04	-119.89	-359.68	-411.06	-393.93	-616.59	-530.95	-530.95	-462.44
311	0	34.26	17.13	-17.13	-119.89	-102.77	-85.64	-34.26	-34.26	-342.55	-428.19	-530.95	-548.08	-582.34	-565.21	-633.72
312	17.13	68.51	0	-34.26	-154.15	-102.77	-119.89	-34.26	-34.26	-359.68	-445.32	-599.46	-513.83	-548.08	-479.57	-616.59
313	0	85.64	-85.64	-85.64	-137.02	-171.28	-325.42	-256.91	-154.15	-376.81	-496.7	-702.23	-548.08	-428.19	-239.79	-393.93
314	-34.26	17.13	-119.89	-137.02	-102.77	-222.66	-393.93	-393.93	-222.66	-393.93	-513.83	-736.48	-582.34	-393.93	-137.02	-325.42
315	-85.64	-137.02	-222.66	-222.66	-137.02	-342.55	-530.95	-445.32	-205.53	-411.06	-513.83	-822.12	-582.34	-411.06	-34.26	-274.04
316	-102.77	-171.28	-256.91	-239.79	-154.15	-376.81	-582.34	-428.19	-154.15	-393.93	-565.21	-770.74	-530.95	-393.93	-102.77	-239.79
317	-17.13	-68.51	-274.04	-239.79	-102.77	-359.68	-462.44	-308.3	-68.51	-274.04	-411.06	-565.21	-274.04	-222.66	-205.53	-51.38
318	0	-34.26	-256.91	-205.53	-68.51	-291.17	-359.68	-222.66	-34.26	-239.79	-342.55	-393.93	-137.02	-119.89	-222.66	-17.13
319	85.64	85.64	-85.64	-34.26	17.13	-51.38	17.13	-17.13	-34.26	-68.51	-51.38	17.13	34.26	34.26	-171.28	0
320	119.89	171.28	17.13	17.13	102.77	34.26	119.89	137.02	34.26	17.13	-17.13	137.02	137.02	119.89	-137.02	17.13
321	85.64	359.68	274.04	205.53	-17.13	274.04	325.42	376.81	51.38	-34.26	17.13	393.93	376.81	205.53	-171.28	119.89
322	34.26	342.55	239.79	188.4	-137.02	239.79	308.3	359.68	0	-34.26	0	376.81	359.68	171.28	-188.4	85.64
323	102.77	274.04	205.53	154.15	-102.77	68.51	171.28	291.17	34.26	17.13	0	274.04	256.91	137.02	-137.02	17.13
324	188.4	256.91	239.79	222.66	17.13	17.13	119.89	291.17	85.64	0	-17.13	188.4	239.79	154.15	-68.51	34.26
325	274.04	274.04	274.04	256.91	256.91	0	0	256.91	171.28	-34.26	-154.15	0	154.15	154.15	-137.02	205.53
326	222.66	256.91	222.66	188.4	171.28	-51.38	-119.89	154.15	119.89	-137.02	-256.91	-85.64	68.51	119.89	-188.4	274.04
327	17.13	171.28	68.51	68.51	-154.15	-171.28	-274.04	-17.13	-17.13	-222.66	-325.42	-325.42	-85.64	-34.26	-171.28	239.79
328	-17.13	137.02	51.38	34.26	-256.91	-222.66	-325.42	-85.64	-85.64	-154.15	-256.91	-393.93	-137.02	-17.13	-102.77	154.15
329	-17.13	119.89	68.51	17.13	-119.89	-256.91	-274.04	-119.89	-102.77	0	-119.89	-411.06	-239.79	-85.64	-34.26	51.38
330	-17.13	85.64	34.26	0	-34.26	-256.91	-239.79	-119.89	-102.77	51.38	-51.38	-359.68	-256.91	-119.89	-34.26	17.13
331	-17.13	34.26	-85.64	-85.64	68.51	-171.28	-205.53	-137.02	-119.89	137.02	0	-171.28	-239.79	-119.89	34.26	17.13
332	-17.13	17.13	-119.89	-119.89	34.26	-102.77	-137.02	-119.89	-119.89	154.15	68.51	-51.38	-171.28	-102.77	137.02	17.13
333	-85.64	17.13	0	-34.26	-17.13	34.26	0	-34.26	0	188.4	171.28	51.38	-17.13	-17.13	222.66	0
334	-102.77	-34.26	34.26	0	-51.38	68.51	68.51	34.26	34.26	154.15	154.15	51.38	0	0	137.02	0
335	-119.89	-239.79	-17.13	0	-85.64	17.13	51.38	85.64	68.51	17.13	0	0	-51.38	-34.26	-68.51	-119.89
336	-137.02	-342.55	-119.89	-17.13	-119.89	0	17.13	68.51	34.26	0	-17.13	-34.26	-85.64	-34.26	-171.28	-137.02
337	-17.13	-17.13	-154.15	-137.02	-85.64	51.38	137.02	119.89	-34.26	51.38	17.13	-34.26	34.26	34.26	-34.26	-17.13
338	0	119.89	-68.51	-102.77	-85.64	154.15	171.28	137.02	-17.13	119.89	68.51	17.13	68.51	51.38	68.51	0
339	17.13	154.15	-17.13	-17.13	-51.38	154.15	68.51	34.26	-34.26	222.66	85.64	17.13	17.13	17.13	325.42	85.64
340	-17.13	34.26	0	0	-17.13	68.51	-34.26	-34.26	0	188.4	68.51	-51.38	0	0	393.93	137.02
341	-34.26	-68.51	0	-17.13	85.64	-154.15	-85.64	0	0	137.02	34.26	-171.28	-34.26	17.13	479.57	188.4
342	-85.64	-85.64	17.13	-17.13	85.64	-222.66	-119.89	-17.13	0	85.64	0	-222.66	0	34.26	428.19	154.15
343	-85.64	-68.51	119.89	17.13	-102.77	-342.55	-171.28	0	-34.26	-51.38	-102.77	-342.55	-34.26	0	256.91	34.26
344	-102.77	-102.77	171.28	68.51	-291.17	-359.68	-222.66	0	0	-119.89	-171.28	-376.81	-102.77	17.13	137.02	17.13
345	-51.38	-17.13	239.79	154.15	-274.04	-291.17	-308.3	51.38	34.26	-119.89	-205.53	-342.55	-119.89	-51.38	0	-102.77
346	0	68.51	256.91	205.53	-85.64	-222.66	-325.42	85.64	51.38	-154.15	-222.66	-342.55	-102.77	-34.26	-85.64	-154.15
347	85.64	205.53	154.15	154.15	154.15	-102.77	-308.3	17.13	17.13	-274.04	-325.42	-376.81	-85.64	-68.51	-154.15	-291.17
348	85.64	188.4	0	34.26	85.64	-102.77	-359.68	-51.38	-51.38	-342.55	-376.81	-376.81	-119.89	-154.15	-205.53	-342.55
349	34.26	102.77	-205.53	-51.38	-85.64	-137.02	-393.93	-274.04	-85.64	-274.04	-222.66	-188.4	-137.02	-171.28	-102.77	-239.79
350	34.26	68.51	-205.53	-51.38	-137.02	-137.02	-342.55	-239.79	-34.26	-119.89	-51.38	0	-17.13	-85.64	0	-102.77
351	34.26	0	-102.77	-34.26	-51.38	17.13	-222.66	-34.26	-17.13	68.51	154.15	205.53	154.15	137.02	137.02	17.13
352	0	-34.26	-119.89	-85.64	-17.13	0	-205.53	-17.13	-102.77	34.26	137.02	188.4	119.89	119.89	137.02	-17.13
353	-119.89	-239.79	-376.81	-325.42	-17.13	-137.02	-445.32	-376.81	-342.55	-137.02	-137.02	-137.02	-291.17	-274.04	-102.77	-256.91
354	-154.15	-274.04	-393.93	-291.17	0	-222.66	-445.32	-376.81	-274.04	-102.77	-119.89	-154.15	-274.04	-256.91	-119.89	-102.77
355	-222.66	-462.44	-222.66	-102.77	-85.64	-274.04	-359.68	-239.79	-17.13	-34.26	-17.13	-102.77	-51.38	0	17.13	359.68
356	-256.91	-582.34	-137.02	-34.26	-137.02	-274.04	-342.55	-205.53	0	-85.64	-51.38	-137.02	0	17.13	51.38	445.32
357	-325.42	-633.72	-119.89	-119.89	-171.28	-359.68	-291.17	-342.55	-205.53	-274.04	-274.04	-291.17	-205.53	-119.89	-34.26	154.15
358	-274.04	-513.83	-205.53	-205.53	-119.89	-376.81	-239.79	-393.93	-325.42	-376.81	-359.68	-342.55	-342.55	-256.91	-154.15	-34.26
359	-137.02	-239.79	-274.04	-274.04	-102.77	-325.42	-51.38	-291.17	-325.42	-479.57	-445.32	-256.91	-376.81	-291.17	-376.81	-239.79
360	-119.89	-171.28	-205.53	-222.66	-205.53	-256.91	0	-205.53	-222.66	-479.57	-445.32	-222.66	-342.55	-239.79	-411.06	-239.79
361	-137.02	-274.04	68.51	17.13	-325.42	-205.53	85.64	-51.38	-85.64	-376.81	-342.55	-222.66	-359.68	-239.79	-325.42	-291.17
362	-137.02	-325.42	205.53	119.89	-205.53	-205.53	137.02	-34.26	-85.64	-274.04	-239.79	-222.66	-393.93	-291.17	-171.28	-376.81
363	-34.26	-171.28	274.04	205.53	137.02	-85.64	291.17	-34.26	-102.77	-102.77	-51.38	-154.15	-411.06	-393.93	34.26	-479.57
364	-17.13	-51.38	274.04	256.91	188.4	-34.26	393.93	34.26	-34.26	-51.38	-17.13	-119.89	-359.68	-359.68	85.64	-445.32
365	0	17.13	274.04	256.91	0	68.51	428.19	51.38	51.38	-137.02	-137.02	-205.53	-256.91	-256.91	17.13	-256.91
366	-34.26	17.13	291.17	239.79	-102.77	51.38	325.42	0	68.51	-222.66	-222.66	-274.04	-256.91	-222.66	0	-171.28
367	0	34.26	239.79	188.4	34.26	-34.26	85.64	-102.77	17.13	-274.04	-291.17	-376.81	-222.66	-154.15	-239.79	-85.64
368	68.51	119.89	205.53	188.4	205.53	-85.64	34.26	-85.64	17.13	-256.91	-274.04	-359.68	-154.15	-102.77	-325.42	0
369	154.15	34.26	239.79	154.15	85.64	-85.64	85.64	-17.13	85.64	-291.17	-359.68	-342.55	-119.89	-17.13	-513.83	34.26
370	34.26	-51.38	205.53	137.02	-51.38	-119.89	68.51	0	85.64	-342.55	-411.06	-376.81	-171.28	-34.26	-513.83	34.26
371	-85.64	-85.64	85.64	85.64	-171.28	-154.15	85.64	51.38	154.15	-291.17	-342.55	-291.17	-205.53	-119.89	-274.04	17.13
372	17.13	0	85.64	119.89	-34.26	-102.77	119.89	85.64	154.15	-171.28	-171.28	-154.15	-171.28	-137.02	-205.53	17.13
373	222.66	205.53	171.28	137.02	256.91	85.64	291.17	137.02	119.89	17.13	68.51	-34.26	-137.02	-154.15	-85.64	-205.53
374	274.04	188.4	188.4	119.89	308.3	171.28	308.3	137.02	0	102.77	137.02	17.13	-119.89	-154.15	-51.38	-274.04
375	137.02	51.38	154.15	85.64	137.02	205.53	222.66	51.38	-51.38	154.15	188.4	0	-119.89	-85.64	85.64	-256.91
376	34.26	17.13	119.89	51.38	85.64	188.4	137.02	85.64	17.13	154.15	205.53	34.26	-51.38	-17.13	239.79	-137.02
377	102.77	-34.26	137.02	119.89	137.02	137.02	85.64	171.28	256.91	188.4	239.79	85.64	68.51	68.51	479.57	137.02
378	154.15	0	137.02	171.28	171.28	137.02	51.38	205.53	325.42	137.02	205.53	119.89	188.4	205.53	428.19	291.17
379	119.89	-137.02	119.89	205.53	34.26	34.26	17.13	274.04	376.81	0	17.13	119.89	393.93	411.06	171.28	565.21
380	0	-154.15	119.89	154.15	-85.64	0	0	239.79	308.3	-17.13	0	119.89	445.32	513.83	34.26	633.72
381	-222.66	-102.77	68.51	85.64	-291.17	-119.89	-222.66	85.64	239.79	-85.64	-137.02	51.38	428.19	513.83	17.13	667.97
382	-274.04	-85.64	34.26	17.13	-274.04	-222.66	-342.55	0	222.66	-102.77	-154.15	-34.26	325.42	428.19	17.13	616.59
383	-119.89	-205.53	-17.13	0	-102.77	-393.93	-462.44	-68.51	274.04	-171.28	-171.28	-51.38	154.15	205.53	-17.13	428.19
384	-17.13	-239.79	-34.26	-34.26	0	-411.06	-445.32	-102.77	274.04	-171.28	-171.28	-51.38	68.51	119.89	-17.13	291.17
385	-17.13	-239.79	-34.26	119.89	51.38	-171.28	-239.79	-154.15	34.26	-34.26	0	0	-119.89	-51.38	-34.26	-205.53
386	-17.13	-205.53	-17.13	85.64	68.51	-137.02	-222.66	-171.28	-34.26	51.38	68.51	-34.26	-154.15	-102.77	0	-376.81
387	-17.13	-119.89	-102.77	-85.64	85.64	-85.64	-137.02	-102.77	-102.77	171.28	154.15	-51.38	-102.77	-51.38	-34.26	-530.95
388	68.51	-34.26	-171.28	-154.15	119.89	-51.38	-119.89	-34.26	-85.64	205.53	171.28	-102.77	-34.26	-17.13	-34.26	-530.95
389	154.15	0	-256.91	-222.66	137.02	-17.13	-137.02	-102.77	-119.89	256.91	205.53	-85.64	-17.13	-34.26	137.02	-445.32
390	188.4	-17.13	-239.79	-222.66	154.15	0	-205.53	-222.66	-171.28	256.91	239.79	-34.26	-85.64	-17.13	239.79	-393.93
391	188.4	-119.89	-85.64	-85.64	239.79	17.13	-154.15	-256.91	-154.15	239.79	256.91	85.64	-102.77	-34.26	274.04	-274.04
392	154.15	-85.64	0	-34.26	256.91	68.51	-34.26	-119.89	-34.26	205.53	239.79	205.53	-17.13	0	256.91	-137.02
393	137.02	51.38	154.15	154.15	188.4	154.15	171.28	205.53	119.89	205.53	239.79	479.57	274.04	274.04	256.91	188.4
394	119.89	85.64	188.4	188.4	154.15	154.15	274.04	291.17	154.15	205.53	239.79	530.95	411.06	393.93	256.91	393.93
395	34.26	0	119.89	154.15	85.64	34.26	274.04	188.4	137.02	188.4	188.4	513.83	445.32	428.19	188.4	633.72
396	-17.13	-102.77	17.13	68.51	51.38	-17.13	188.4	34.26	68.51	137.02	119.89	393.93	359.68	359.68	119.89	599.46
397	-137.02	-256.91	-137.02	-85.64	-102.77	-222.66	-51.38	-205.53	0	0	-34.26	119.89	85.64	85.64	17.13	308.3
398	-205.53	-342.55	-188.4	-119.89	-154.15	-291.17	-205.53	-256.91	-51.38	-17.13	-68.51	17.13	0	0	17.13	154.15
399	-154.15	-291.17	-119.89	-51.38	-85.64	-325.42	-291.17	-154.15	-34.26	85.64	17.13	-17.13	-17.13	-34.26	137.02	0
400	-85.64	-205.53	-17.13	0	17.13	-274.04	-222.66	-68.51	0	154.15	137.02	-17.13	0	-17.13	222.66	-51.38
401	0	-137.02	137.02	154.15	0	0	-34.26	-51.38	137.02	171.28	154.15	-137.02	-102.77	0	256.91	-205.53
402	-102.77	-274.04	119.89	119.89	-68.51	0	-102.77	-154.15	34.26	85.64	34.26	-171.28	-137.02	-34.26	205.53	-188.4
403	-205.53	-530.95	17.13	17.13	-222.66	-205.53	-308.3	-274.04	-51.38	17.13	-51.38	-171.28	-137.02	-51.38	119.89	34.26
404	-222.66	-513.83	-85.64	17.13	-154.15	-308.3	-393.93	-274.04	-68.51	-51.38	-85.64	-154.15	-102.77	-51.38	102.77	274.04
405	-171.28	-274.04	-137.02	-51.38	-51.38	-393.93	-376.81	-239.79	-17.13	-154.15	-119.89	-68.51	-17.13	-17.13	154.15	548.08
406	-137.02	-205.53	-102.77	-85.64	-51.38	-376.81	-342.55	-205.53	0	-154.15	-137.02	0	17.13	0	188.4	565.21
407	-137.02	-205.53	-51.38	-85.64	-171.28	-256.91	-205.53	-137.02	0	-51.38	-68.51	17.13	17.13	0	119.89	428.19
408	-119.89	-171.28	-34.26	-34.26	-222.66	-205.53	-154.15	-102.77	0	17.13	0	-17.13	0	-17.13	17.13	376.81
409	-51.38	-34.26	-34.26	17.13	-85.64	-137.02	-119.89	17.13	34.26	0	-17.13	-34.26	0	0	-256.91	308.3
410	-34.26	-17.13	-17.13	17.13	0	-85.64	-102.77	34.26	119.89	0	17.13	-51.38	0	17.13	-325.42	222.66
411	-137.02	-17.13	119.89	154.15	-85.64	-51.38	-102.77	34.26	154.15	-51.38	0	-17.13	68.51	51.38	-308.3	68.51
412	-205.53	-85.64	119.89	154.15	-171.28	-17.13	-85.64	34.26	137.02	-17.13	0	0	85.64	102.77	-222.66	17.13
413	-256.91	-222.66	-34.26	-34.26	-256.91	-51.38	-119.89	-34.26	0	34.26	0	-34.26	17.13	34.26	0	-34.26
414	-205.53	-222.66	-171.28	-85.64	-154.15	-51.38	-102.77	-51.38	-102.77	102.77	34.26	-85.64	0	0	102.77	0
415	-17.13	-154.15	-222.66	-137.02	68.51	-34.26	0	-85.64	-102.77	239.79	137.02	0	17.13	17.13	205.53	51.38
416	0	-51.38	-137.02	-102.77	154.15	85.64	68.51	-17.13	-17.13	308.3	205.53	68.51	85.64	51.38	222.66	188.4
417	68.51	85.64	-34.26	17.13	68.51	256.91	308.3	274.04	137.02	154.15	119.89	291.17	274.04	85.64	51.38	548.08
418	34.26	17.13	-34.26	51.38	34.26	188.4	291.17	325.42	119.89	34.26	0	274.04	274.04	119.89	-34.26	616.59
419	0	-222.66	51.38	119.89	17.13	0	188.4	308.3	154.15	-85.64	-137.02	171.28	274.04	188.4	-291.17	530.95
420	-51.38	-291.17	68.51	137.02	-34.26	-34.26	154.15	274.04	205.53	-102.77	-171.28	119.89	256.91	205.53	-325.42	411.06
421	-51.38	-171.28	0	51.38	-34.26	-51.38	119.89	171.28	274.04	-85.64	-154.15	51.38	154.15	154.15	-222.66	188.4
422	-17.13	-51.38	-17.13	0	-17.13	-17.13	85.64	137.02	188.4	-51.38	-137.02	17.13	85.64	85.64	-154.15	119.89
423	34.26	-34.26	-34.26	-34.26	51.38	34.26	68.51	85.64	17.13	-17.13	-102.77	-34.26	0	0	-239.79	-17.13
424	68.51	0	0	17.13	119.89	85.64	68.51	85.64	0	-17.13	-85.64	0	0	-51.38	-325.42	-154.15
425	34.26	-17.13	119.89	68.51	85.64	205.53	154.15	119.89	68.51	-34.26	-85.64	-34.26	-85.64	-137.02	-445.32	-479.57
426	-17.13	-34.26	119.89	34.26	34.26	239.79	154.15	85.64	85.64	-51.38	-85.64	-51.38	-119.89	-154.15	-411.06	-582.34
427	-51.38	85.64	17.13	-17.13	0	171.28	85.64	68.51	17.13	-17.13	-85.64	-274.04	-239.79	-171.28	-342.55	-616.59
428	-51.38	68.51	0	0	0	154.15	34.26	51.38	0	-34.26	-51.38	-342.55	-274.04	-205.53	-325.42	-565.21
429	0	51.38	-34.26	17.13	34.26	188.4	68.51	68.51	-85.64	17.13	-34.26	-239.79	-222.66	-256.91	-188.4	-342.55
430	68.51	51.38	-68.51	-17.13	68.51	188.4	85.64	34.26	-137.02	17.13	0	-137.02	-154.15	-256.91	-102.77	-137.02
431	68.51	119.89	-171.28	-102.77	34.26	119.89	17.13	-34.26	-205.53	0	-34.26	17.13	-34.26	-154.15	154.15	256.91
432	0	119.89	-222.66	-171.28	-34.26	0	17.13	-154.15	-205.53	-34.26	-34.26	68.51	0	-119.89	239.79	428.19
433	-154.15	-17.13	-85.64	-102.77	-256.91	-17.13	0	0	-68.51	0	68.51	308.3	137.02	0	393.93	685.1
434	-85.64	0	17.13	-34.26	-137.02	154.15	68.51	154.15	-51.38	68.51	137.02	393.93	188.4	51.38	411.06	667.97
435	188.4	137.02	51.38	17.13	154.15	359.68	325.42	239.79	-34.26	34.26	85.64	308.3	68.51	0	359.68	428.19
436	222.66	205.53	34.26	0	188.4	325.42	325.42	154.15	-34.26	17.13	34.26	171.28	-51.38	-51.38	291.17	239.79
437	68.51	154.15	-17.13	17.13	-34.26	154.15	274.04	68.51	34.26	0	17.13	34.26	-205.53	-154.15	154.15	-51.38
438	-34.26	68.51	34.26	0	-188.4	137.02	205.53	137.02	137.02	17.13	51.38	85.64	-85.64	-51.38	102.77	-137.02
439	-137.02	-34.26	137.02	154.15	-137.02	137.02	154.15	325.42	154.15	-68.51	17.13	205.53	137.02	119.89	0	-102.77
440	-119.89	-68.51	188.4	205.53	0	85.64	119.89	274.04	102.77	-171.28	-34.26	205.53	154.15	119.89	0	-102.77
441	-17.13	-68.51	137.02	188.4	51.38	-34.26	17.13	51.38	0	-274.04	-102.77	137.02	17.13	-85.64	17.13	-222.66
442	34.26	-34.26	154.15	137.02	17.13	-51.38	17.13	0	-51.38	-205.53	-51.38	137.02	-85.64	-205.53	68.51	-239.79
443	85.64	17.13	137.02	137.02	85.64	85.64	154.15	-17.13	-51.38	17.13	68.51	291.17	-34.26	-51.38	205.53	-85.64
444	102.77	51.38	188.4	154.15	137.02	154.15	239.79	51.38	-51.38	17.13	119.89	393.93	119.89	34.26	256.91	34.26
445	85.64	34.26	239.79	205.53	85.64	102.77	256.91	85.64	-68.51	-51.38	0	411.06	291.17	205.53	154.15	171.28
446	68.51	34.26	205.53	171.28	-34.26	17.13	274.04	17.13	-102.77	-154.15	-102.77	308.3	256.91	171.28	0	154.15
447	17.13	68.51	188.4	34.26	-17.13	0	359.68	-17.13	-154.15	-239.79	-205.53	119.89	51.38	0	-137.02	34.26
448	34.26	85.64	137.02	0	-34.26	-17.13	376.81	17.13	-171.28	-222.66	-171.28	51.38	0	-17.13	-137.02	17.13
449	68.51	68.51	-222.66	-256.91	51.38	-85.64	205.53	-137.02	-274.04	-85.64	-17.13	68.51	-119.89	-85.64	17.13	17.13
450	68.51	0	-256.91	-274.04	34.26	-85.64	85.64	-205.53	-274.04	-34.26	-34.26	34.26	-154.15	-119.89	0	-102.77
451	17.13	-171.28	-171.28	-222.66	68.51	-17.13	0	-256.91	-222.66	0	0	-85.64	-239.79	-154.15	-34.26	-496.7
452	0	-239.79	-137.02	-171.28	68.51	-34.26	17.13	-239.79	-137.02	0	34.26	-154.15	-239.79	-154.15	0	-565.21
453	-51.38	-171.28	-154.15	-205.53	0	51.38	0	-171.28	-34.26	85.64	171.28	-137.02	-102.77	-34.26	256.91	-256.91
454	-119.89	-119.89	-205.53	-205.53	-34.26	51.38	0	-154.15	-17.13	154.15	256.91	-85.64	0	0	445.32	0
455	-154.15	-85.64	-137.02	-85.64	-17.13	-34.26	-137.02	-205.53	-34.26	188.4	274.04	0	68.51	17.13	736.48	530.95
456	-137.02	-119.89	-85.64	0	0	-17.13	-205.53	-239.79	-85.64	171.28	239.79	34.26	85.64	34.26	753.61	770.74
457	-137.02	-222.66	-137.02	-85.64	-17.13	-137.02	-222.66	-256.91	-102.77	119.89	137.02	119.89	137.02	137.02	667.97	1027.65
458	-205.53	-239.79	-256.91	-205.53	-154.15	-154.15	-205.53	-222.66	-51.38	85.64	137.02	171.28	171.28	188.4	582.34	993.4
459	-291.17	-205.53	-359.68	-342.55	-342.55	-119.89	-102.77	-34.26	17.13	85.64	154.15	359.68	256.91	274.04	411.06	719.36
460	-274.04	-171.28	-325.42	-274.04	-274.04	-51.38	-34.26	-34.26	68.51	102.77	188.4	411.06	274.04	274.04	359.68	530.95
461	-205.53	-154.15	-85.64	0	-34.26	-34.26	-34.26	51.38	137.02	137.02	154.15	325.42	256.91	188.4	119.89	239.79
462	-154.15	-171.28	-51.38	17.13	-34.26	-17.13	-17.13	85.64	154.15	154.15	137.02	188.4	171.28	137.02	-17.13	51.38
463	-171.28	-239.79	-205.53	-34.26	0	34.26	0	68.51	239.79	137.02	102.77	0	17.13	0	-411.06	-342.55
464	-171.28	-239.79	-222.66	-102.77	17.13	102.77	85.64	102.77	274.04	137.02	119.89	-17.13	17.13	17.13	-530.95	-530.95
465	34.26	68.51	68.51	68.51	205.53	479.57	582.34	462.44	393.93	376.81	513.83	359.68	188.4	34.26	85.64	-496.7
466	188.4	256.91	256.91	256.91	256.91	599.46	702.23	599.46	479.57	496.7	616.59	445.32	274.04	119.89	393.93	-393.93
467	274.04	513.83	376.81	393.93	256.91	702.23	787.87	753.61	599.46	616.59	685.1	411.06	342.55	239.79	736.48	-291.17
468	308.3	565.21	376.81	359.68	274.04	650.85	736.48	702.23	565.21	565.21	616.59	308.3	342.55	274.04	770.74	-222.66
469	222.66	496.7	239.79	205.53	256.91	496.7	462.44	479.57	256.91	376.81	445.32	171.28	308.3	325.42	856.38	17.13
470	154.15	428.19	222.66	171.28	222.66	393.93	325.42	376.81	154.15	308.3	359.68	188.4	325.42	359.68	873.5	171.28
471	137.02	393.93	239.79	188.4	188.4	308.3	188.4	308.3	137.02	274.04	291.17	205.53	393.93	393.93	753.61	376.81
472	137.02	445.32	256.91	222.66	137.02	342.55	222.66	325.42	171.28	274.04	274.04	274.04	411.06	428.19	599.46	428.19
473	85.64	376.81	222.66	154.15	119.89	359.68	342.55	308.3	188.4	256.91	325.42	513.83	479.57	462.44	256.91	650.85
474	17.13	308.3	205.53	137.02	119.89	359.68	359.68	256.91	171.28	256.91	325.42	633.72	548.08	479.57	154.15	770.74
475	-34.26	222.66	222.66	188.4	188.4	308.3	325.42	239.79	154.15	119.89	154.15	650.85	616.59	462.44	-102.77	736.48
476	-34.26	205.53	205.53	256.91	171.28	222.66	308.3	256.91	188.4	0	-17.13	513.83	599.46	445.32	-376.81	530.95
477	85.64	308.3	256.91	239.79	51.38	102.77	376.81	256.91	205.53	-222.66	-291.17	85.64	411.06	393.93	-942.01	34.26
478	137.02	308.3	239.79	188.4	-34.26	51.38	411.06	205.53	188.4	-256.91	-342.55	0	291.17	359.68	-1044.78	-85.64
479	137.02	274.04	205.53	137.02	17.13	137.02	359.68	188.4	188.4	0	-34.26	-17.13	154.15	239.79	-633.72	-154.15
480	137.02	274.04	239.79	154.15	119.89	205.53	291.17	188.4	239.79	119.89	119.89	0	119.89	171.28	-274.04	-171.28
481	205.53	274.04	137.02	171.28	85.64	85.64	0	137.02	256.91	256.91	274.04	-17.13	-34.26	0	616.59	-222.66
482	222.66	239.79	68.51	119.89	0	0	-154.15	-34.26	205.53	188.4	205.53	-119.89	-34.26	-34.26	753.61	-51.38
483	205.53	137.02	51.38	0	-51.38	-239.79	-479.57	-325.42	34.26	119.89	51.38	-239.79	-85.64	0	787.87	376.81
484	154.15	119.89	34.26	-17.13	-17.13	-291.17	-582.34	-462.44	-17.13	17.13	-17.13	-291.17	-102.77	-17.13	667.97	530.95
485	68.51	154.15	-17.13	-119.89	0	-376.81	-702.23	-565.21	-205.53	-256.91	-359.68	-462.44	-239.79	-119.89	85.64	479.57
486	34.26	171.28	-51.38	-119.89	-51.38	-393.93	-719.36	-582.34	-239.79	-411.06	-496.7	-530.95	-342.55	-171.28	-222.66	359.68
487	34.26	119.89	0	0	-205.53	-411.06	-685.1	-530.95	-171.28	-496.7	-633.72	-633.72	-462.44	-274.04	-650.85	171.28
488	68.51	68.51	-17.13	17.13	-171.28	-411.06	-650.85	-496.7	-119.89	-462.44	-633.72	-633.72	-496.7	-342.55	-650.85	154.15
489	205.53	85.64	68.51	17.13	0	-479.57	-548.08	-462.44	-51.38	-462.44	-633.72	-685.1	-633.72	-496.7	-565.21	0
490	274.04	205.53	102.77	0	17.13	-479.57	-462.44	-428.19	-34.26	-513.83	-650.85	-685.1	-719.36	-565.21	-633.72	-102.77
491	359.68	513.83	274.04	119.89	51.38	-325.42	-171.28	-188.4	34.26	-565.21	-616.59	-496.7	-616.59	-462.44	-907.76	-325.42
492	342.55	633.72	393.93	274.04	68.51	-137.02	0	-17.13	188.4	-479.57	-513.83	-342.55	-393.93	-256.91	-1010.52	-256.91
493	274.04	513.83	376.81	411.06	119.89	205.53	325.42	428.19	342.55	-239.79	-274.04	-85.64	17.13	85.64	-804.99	51.38
494	256.91	376.81	308.3	342.55	102.77	342.55	393.93	496.7	325.42	-102.77	-137.02	0	137.02	205.53	-496.7	205.53
495	205.53	256.91	85.64	85.64	17.13	308.3	256.91	274.04	85.64	17.13	17.13	-34.26	188.4	222.66	119.89	376.81
496	188.4	239.79	34.26	-34.26	0	222.66	51.38	68.51	0	68.51	68.51	0	171.28	205.53	325.42	445.32
497	102.77	85.64	-34.26	0	17.13	-68.51	-325.42	-154.15	-34.26	205.53	171.28	137.02	239.79	188.4	667.97	685.1
498	85.64	34.26	0	68.51	0	-102.77	-376.81	-137.02	-34.26	205.53	171.28	154.15	188.4	154.15	736.48	702.23
499	137.02	68.51	137.02	137.02	0	-154.15	-376.81	-205.53	-102.77	102.77	85.64	68.51	-102.77	-51.38	702.23	496.7
500	137.02	137.02	154.15	102.77	51.38	-188.4	-342.55	-256.91	-137.02	34.26	17.13	0	-291.17	-205.53	565.21	256.91
501	119.89	205.53	34.26	-68.51	137.02	-205.53	-274.04	-256.91	-171.28	-34.26	-34.26	-85.64	-548.08	-462.44	137.02	-291.17
502	137.02	205.53	-17.13	-137.02	85.64	-171.28	-171.28	-188.4	-102.77	17.13	-17.13	-34.26	-582.34	-513.83	0	-565.21
503	137.02	205.53	-17.13	17.13	-34.26	-51.38	17.13	17.13	34.26	34.26	-34.26	-102.77	-582.34	-479.57	-188.4	-822.12
504	154.15	239.79	34.26	119.89	-102.77	0	17.13	0	102.77	-17.13	-51.38	-222.66	-582.34	-428.19	-222.66	-856.38
505	85.64	222.66	274.04	205.53	-34.26	-85.64	-34.26	-34.26	137.02	-222.66	-256.91	-445.32	-496.7	-256.91	-256.91	-685.1
506	0	205.53	291.17	188.4	-34.26	-171.28	-102.77	-17.13	119.89	-256.91	-291.17	-462.44	-342.55	-102.77	-222.66	-496.7
507	-171.28	68.51	171.28	119.89	-205.53	-205.53	-51.38	188.4	256.91	-102.77	-119.89	-154.15	154.15	205.53	-17.13	0
508	-171.28	34.26	171.28	154.15	-256.91	-119.89	0	376.81	376.81	17.13	0	0	462.44	462.44	102.77	274.04
509	-17.13	119.89	325.42	291.17	-85.64	51.38	154.15	565.21	428.19	239.79	274.04	291.17	873.5	787.87	205.53	650.85
510	68.51	205.53	376.81	325.42	17.13	119.89	239.79	565.21	376.81	291.17	359.68	359.68	924.89	856.38	274.04	719.36
511	188.4	291.17	239.79	154.15	188.4	205.53	154.15	359.68	188.4	393.93	479.57	411.06	650.85	633.72	359.68	513.83
512	188.4	308.3	154.15	68.51	205.53	256.91	119.89	256.91	102.77	479.57	513.83	445.32	445.32	376.81	445.32	325.42
513	222.66	222.66	274.04	171.28	239.79	274.04	188.4	205.53	68.51	513.83	530.95	650.85	0	-205.53	308.3	-256.91
514	239.79	205.53	376.81	256.91	239.79	274.04	274.04	256.91	119.89	411.06	496.7	633.72	-137.02	-291.17	154.15	-462.44
515	188.4	274.04	291.17	239.79	171.28	308.3	376.81	274.04	171.28	188.4	291.17	393.93	-411.06	-411.06	0	-736.48
516	102.77	239.79	137.02	137.02	119.89	291.17	308.3	188.4	137.02	85.64	171.28	171.28	-565.21	-479.57	0	-804.99
517	-34.26	-34.26	-102.77	-17.13	0	137.02	17.13	-34.26	17.13	0	-17.13	-222.66	-736.48	-582.34	85.64	-736.48
518	-85.64	-137.02	-154.15	-85.64	-17.13	0	-102.77	-205.53	0	-51.38	-85.64	-359.68	-753.61	-582.34	119.89	-685.1
519	-85.64	-291.17	-154.15	-119.89	-17.13	-342.55	-239.79	-342.55	-102.77	-154.15	-154.15	-530.95	-804.99	-599.46	17.13	-685.1
520	-51.38	-291.17	-205.53	-154.15	0	-393.93	-222.66	-359.68	-171.28	-222.66	-171.28	-599.46	-839.25	-616.59	-34.26	-685.1
521	-137.02	-342.55	-428.19	-359.68	-17.13	-325.42	-171.28	-479.57	-411.06	-205.53	-222.66	-736.48	-924.89	-633.72	0	-530.95
522	-222.66	-411.06	-530.95	-462.44	-119.89	-239.79	-205.53	-530.95	-496.7	-154.15	-205.53	-753.61	-890.63	-599.46	51.38	-359.68
523	-274.04	-599.46	-548.08	-462.44	-239.79	-119.89	-171.28	-530.95	-513.83	-34.26	-34.26	-633.72	-582.34	-411.06	154.15	119.89
524	-205.53	-513.83	-479.57	-393.93	-137.02	-51.38	-119.89	-445.32	-445.32	0	17.13	-496.7	-376.81	-256.91	205.53	325.42
525	34.26	-137.02	-291.17	-256.91	256.91	137.02	68.51	-102.77	-274.04	171.28	274.04	-119.89	0	17.13	376.81	548.08
526	137.02	34.26	-188.4	-222.66	411.06	256.91	205.53	-34.26	-222.66	256.91	359.68	-17.13	68.51	68.51	359.68	496.7
527	188.4	205.53	17.13	-34.26	376.81	513.83	479.57	188.4	-85.64	239.79	342.55	154.15	205.53	171.28	137.02	188.4
528	154.15	205.53	119.89	68.51	239.79	530.95	582.34	308.3	-17.13	119.89	239.79	239.79	256.91	205.53	0	34.26
529	102.77	188.4	274.04	291.17	85.64	308.3	650.85	599.46	274.04	-154.15	0	376.81	445.32	256.91	-445.32	-51.38
530	85.64	154.15	256.91	239.79	119.89	239.79	633.72	616.59	325.42	-137.02	-34.26	445.32	565.21	376.81	-445.32	68.51
531	17.13	68.51	171.28	137.02	68.51	188.4	496.7	548.08	274.04	-51.38	0	513.83	753.61	599.46	-291.17	462.44
532	0	17.13	119.89	85.64	0	137.02	393.93	411.06	239.79	17.13	17.13	496.7	787.87	667.97	-154.15	530.95
533	-137.02	-102.77	0	0	-154.15	17.13	171.28	171.28	68.51	85.64	102.77	359.68	702.23	599.46	102.77	479.57
534	-205.53	-154.15	0	17.13	-171.28	0	17.13	68.51	17.13	119.89	137.02	325.42	650.85	530.95	239.79	479.57
535	-137.02	-137.02	-17.13	-34.26	-68.51	-85.64	-85.64	0	0	154.15	137.02	274.04	599.46	479.57	325.42	599.46
536	-119.89	-188.4	0	-51.38	-51.38	-102.77	-85.64	-34.26	17.13	85.64	137.02	239.79	633.72	462.44	308.3	685.1
537	-119.89	-256.91	-34.26	-68.51	-51.38	-85.64	-85.64	-51.38	-102.77	68.51	137.02	205.53	548.08	359.68	205.53	667.97
538	-119.89	-256.91	-68.51	-85.64	-51.38	-17.13	-51.38	-51.38	-137.02	119.89	188.4	205.53	496.7	308.3	188.4	582.34
539	-34.26	0	-51.38	-34.26	-34.26	154.15	137.02	17.13	-137.02	325.42	393.93	325.42	445.32	205.53	188.4	393.93
540	0	68.51	0	-34.26	17.13	274.04	308.3	119.89	-51.38	393.93	428.19	428.19	445.32	205.53	154.15	308.3
541	119.89	188.4	34.26	51.38	68.51	428.19	548.08	308.3	17.13	308.3	376.81	462.44	393.93	119.89	17.13	0
542	137.02	171.28	102.77	68.51	119.89	445.32	616.59	376.81	68.51	188.4	291.17	445.32	342.55	68.51	-171.28	-137.02
543	154.15	205.53	154.15	119.89	137.02	479.57	633.72	445.32	51.38	51.38	137.02	445.32	308.3	17.13	-513.83	-308.3
544	154.15	308.3	188.4	154.15	119.89	445.32	633.72	496.7	51.38	17.13	68.51	445.32	342.55	51.38	-633.72	-239.79
545	188.4	205.53	85.64	51.38	137.02	171.28	445.32	359.68	-34.26	68.51	34.26	428.19	445.32	137.02	-393.93	171.28
546	222.66	85.64	17.13	-34.26	205.53	68.51	308.3	239.79	-17.13	119.89	85.64	428.19	428.19	68.51	-205.53	256.91
547	376.81	68.51	-34.26	-85.64	325.42	154.15	171.28	154.15	-102.77	239.79	239.79	548.08	428.19	0	17.13	256.91
548	445.32	188.4	-34.26	-85.64	325.42	274.04	171.28	188.4	-119.89	256.91	274.04	633.72	479.57	34.26	17.13	274.04
549	393.93	411.06	-34.26	-34.26	256.91	428.19	256.91	239.79	-137.02	171.28	274.04	719.36	633.72	256.91	-85.64	411.06
550	342.55	376.81	0	-17.13	274.04	428.19	239.79	171.28	-119.89	137.02	274.04	667.97	633.72	359.68	-119.89	445.32
551	239.79	85.64	17.13	-34.26	393.93	325.42	-34.26	0	-85.64	171.28	274.04	479.57	428.19	291.17	17.13	359.68
552	222.66	0	-17.13	17.13	411.06	274.04	-119.89	-51.38	-102.77	239.79	291.17	359.68	274.04	188.4	171.28	256.91
553	205.53	34.26	-34.26	-51.38	188.4	137.02	-205.53	-85.64	-222.66	256.91	256.91	68.51	0	-34.26	171.28	-17.13
554	188.4	102.77	-68.51	-85.64	34.26	68.51	-137.02	-68.51	-239.79	171.28	154.15	-51.38	-154.15	-205.53	-17.13	-274.04
555	85.64	137.02	-85.64	-85.64	0	0	-34.26	-205.53	-154.15	-34.26	-85.64	-393.93	-496.7	-411.06	-462.44	-873.5
556	68.51	85.64	-51.38	-51.38	0	0	-51.38	-274.04	-34.26	-154.15	-205.53	-513.83	-599.46	-445.32	-616.59	-1044.78
557	34.26	17.13	-51.38	0	34.26	-51.38	-85.64	-256.91	17.13	-274.04	-376.81	-479.57	-411.06	-239.79	-616.59	-822.12
558	17.13	0	-85.64	-34.26	0	-102.77	-68.51	-137.02	34.26	-291.17	-393.93	-342.55	-171.28	-34.26	-513.83	-496.7
559	-34.26	-119.89	-205.53	-171.28	-119.89	-274.04	-34.26	34.26	17.13	-274.04	-308.3	0	308.3	308.3	-342.55	119.89
560	-119.89	-205.53	-222.66	-171.28	-154.15	-325.42	-102.77	34.26	17.13	-256.91	-274.04	119.89	445.32	428.19	-308.3	325.42
561	-239.79	-376.81	-222.66	-205.53	-119.89	-513.83	-462.44	-188.4	17.13	-274.04	-325.42	256.91	496.7	496.7	-85.64	616.59
562	-205.53	-411.06	-256.91	-205.53	-137.02	-582.34	-565.21	-274.04	-51.38	-274.04	-325.42	222.66	428.19	376.81	34.26	633.72
563	-137.02	-411.06	-376.81	-308.3	-256.91	-616.59	-479.57	-291.17	-119.89	-171.28	-274.04	0	68.51	68.51	325.42	445.32
564	-154.15	-376.81	-411.06	-376.81	-308.3	-548.08	-411.06	-308.3	-205.53	-137.02	-205.53	-102.77	-68.51	-51.38	342.55	256.91
565	-205.53	-256.91	-308.3	-325.42	-256.91	-376.81	-256.91	-291.17	-325.42	-171.28	-205.53	-325.42	-393.93	-239.79	154.15	-85.64
566	-171.28	-205.53	-222.66	-256.91	-188.4	-325.42	-188.4	-325.42	-376.81	-205.53	-256.91	-445.32	-496.7	-274.04	68.51	-256.91
567	-119.89	-51.38	-85.64	-154.15	-137.02	-256.91	-154.15	-462.44	-428.19	-222.66	-291.17	-633.72	-719.36	-445.32	0	-513.83
568	-51.38	17.13	-68.51	-137.02	-154.15	-188.4	-171.28	-496.7	-376.81	-188.4	-274.04	-736.48	-856.38	-565.21	17.13	-633.72
569	-17.13	188.4	17.13	0	-137.02	17.13	-102.77	-325.42	-102.77	-51.38	-154.15	-873.5	-993.4	-650.85	0	-873.5
570	-51.38	171.28	137.02	68.51	-102.77	17.13	-51.38	-171.28	17.13	-51.38	-137.02	-890.63	-959.14	-616.59	-137.02	-942.01
571	-171.28	0	308.3	308.3	-119.89	17.13	34.26	137.02	308.3	-154.15	-205.53	-753.61	-616.59	-359.68	-342.55	-822.12
572	-239.79	-102.77	308.3	325.42	-137.02	0	68.51	256.91	411.06	-205.53	-222.66	-582.34	-359.68	-205.53	-359.68	-633.72
573	-274.04	-102.77	239.79	325.42	-205.53	-17.13	154.15	393.93	428.19	-85.64	-51.38	-102.77	137.02	51.38	-51.38	-102.77
574	-256.91	-85.64	205.53	256.91	-222.66	-34.26	171.28	411.06	393.93	0	34.26	68.51	325.42	188.4	119.89	51.38
575	-171.28	-34.26	239.79	239.79	-205.53	68.51	154.15	393.93	291.17	205.53	205.53	376.81	513.83	393.93	411.06	256.91
576	-137.02	-17.13	308.3	274.04	-205.53	68.51	154.15	376.81	274.04	239.79	256.91	428.19	513.83	428.19	496.7	291.17
577	-119.89	0	274.04	239.79	-119.89	137.02	171.28	393.93	239.79	119.89	239.79	325.42	256.91	137.02	428.19	137.02
578	-102.77	0	239.79	188.4	-17.13	188.4	188.4	359.68	205.53	137.02	239.79	239.79	119.89	-34.26	359.68	0
579	-17.13	188.4	256.91	205.53	137.02	256.91	188.4	205.53	205.53	256.91	274.04	51.38	0	-102.77	171.28	-222.66
580	85.64	325.42	308.3	308.3	171.28	274.04	171.28	188.4	256.91	325.42	291.17	17.13	0	-34.26	51.38	-274.04
581	188.4	479.57	479.57	530.95	119.89	291.17	154.15	291.17	359.68	308.3	256.91	-51.38	-34.26	17.13	-205.53	-445.32
582	119.89	411.06	479.57	530.95	34.26	274.04	137.02	291.17	325.42	239.79	205.53	-154.15	-102.77	-34.26	-359.68	-616.59
583	-102.77	119.89	205.53	308.3	-85.64	205.53	0	119.89	188.4	85.64	137.02	-325.42	-342.55	-171.28	-462.44	-856.38
584	-205.53	-34.26	85.64	171.28	-137.02	171.28	-17.13	17.13	154.15	51.38	119.89	-291.17	-342.55	-171.28	-411.06	-753.61
585	-239.79	-34.26	-17.13	68.51	-205.53	119.89	-17.13	17.13	137.02	34.26	68.51	-154.15	-17.13	34.26	-154.15	-171.28
586	-222.66	0	0	85.64	-239.79	51.38	0	85.64	154.15	34.26	34.26	-102.77	119.89	154.15	0	68.51
587	-154.15	-34.26	137.02	188.4	-256.91	-34.26	-34.26	171.28	119.89	0	17.13	-85.64	188.4	137.02	154.15	393.93
588	-154.15	-51.38	119.89	205.53	-239.79	-119.89	-17.13	119.89	68.51	17.13	17.13	-34.26	154.15	68.51	256.91	428.19
589	-171.28	-205.53	-34.26	0	-154.15	-171.28	-119.89	-17.13	-34.26	34.26	68.51	17.13	85.64	-17.13	308.3	496.7
590	-171.28	-274.04	-119.89	-51.38	-137.02	-154.15	-137.02	-85.64	-68.51	34.26	85.64	85.64	85.64	17.13	256.91	496.7
591	-239.79	-291.17	-188.4	-154.15	-102.77	-85.64	-51.38	-34.26	-68.51	34.26	102.77	154.15	85.64	34.26	119.89	411.06
592	-171.28	-188.4	-85.64	-102.77	-85.64	0	68.51	0	-51.38	51.38	137.02	222.66	85.64	51.38	85.64	359.68
593	-85.64	-34.26	17.13	17.13	-85.64	154.15	256.91	85.64	-85.64	68.51	137.02	325.42	34.26	-17.13	137.02	256.91
594	-85.64	-85.64	0	-34.26	-85.64	85.64	154.15	-17.13	-102.77	34.26	68.51	256.91	-34.26	-137.02	34.26	85.64
595	-102.77	-308.3	-137.02	-222.66	-34.26	-34.26	-51.38	-188.4	-188.4	0	-34.26	137.02	-256.91	-411.06	-154.15	-325.42
596	-34.26	-291.17	-102.77	-171.28	-17.13	-68.51	-51.38	-222.66	-171.28	-34.26	-34.26	68.51	-325.42	-462.44	-239.79	-513.83
597	0	-154.15	102.77	34.26	0	51.38	154.15	-17.13	-34.26	-51.38	17.13	-68.51	-274.04	-325.42	-274.04	-582.34
598	-17.13	-85.64	239.79	188.4	0	85.64	274.04	68.51	-34.26	-102.77	-51.38	-171.28	-205.53	-205.53	-325.42	-496.7
599	-171.28	-171.28	274.04	274.04	-17.13	0	154.15	154.15	85.64	-274.04	-222.66	-274.04	-34.26	0	-479.57	-137.02
600	-222.66	-256.91	188.4	222.66	-85.64	-137.02	-34.26	51.38	85.64	-325.42	-274.04	-222.66	34.26	34.26	-462.44	102.77
601	-205.53	-342.55	34.26	68.51	-171.28	-291.17	-222.66	-154.15	0	-291.17	-205.53	0	274.04	256.91	-68.51	770.74
602	-119.89	-308.3	-17.13	34.26	-154.15	-291.17	-239.79	-239.79	-85.64	-205.53	-102.77	51.38	376.81	359.68	171.28	1027.65
603	-17.13	-274.04	-51.38	-34.26	-85.64	-325.42	-205.53	-291.17	-205.53	-85.64	-51.38	85.64	393.93	411.06	291.17	1079.03
604	-51.38	-325.42	-68.51	-17.13	-51.38	-342.55	-222.66	-274.04	-171.28	-102.77	-102.77	68.51	359.68	325.42	154.15	856.38
605	-154.15	-393.93	-119.89	-85.64	-85.64	-393.93	-256.91	-205.53	-85.64	-205.53	-205.53	85.64	239.79	85.64	-222.66	291.17
606	-137.02	-308.3	-85.64	-51.38	-85.64	-376.81	-239.79	-154.15	-34.26	-239.79	-205.53	137.02	171.28	-34.26	-308.3	68.51
607	17.13	0	-34.26	34.26	0	-171.28	-85.64	-34.26	0	-205.53	-119.89	171.28	0	-205.53	-325.42	-222.66
608	137.02	119.89	68.51	137.02	51.38	-17.13	-34.26	0	17.13	-102.77	-34.26	171.28	-17.13	-239.79	-274.04	-325.42
609	308.3	256.91	274.04	274.04	137.02	411.06	188.4	205.53	85.64	205.53	291.17	325.42	85.64	-17.13	85.64	-239.79
610	308.3	205.53	239.79	205.53	154.15	479.57	188.4	205.53	85.64	274.04	376.81	325.42	137.02	17.13	205.53	-205.53
611	256.91	119.89	51.38	34.26	188.4	393.93	85.64	68.51	119.89	239.79	274.04	137.02	34.26	0	188.4	-411.06
612	222.66	137.02	17.13	0	205.53	325.42	34.26	0	119.89	171.28	171.28	17.13	-17.13	-51.38	51.38	-530.95
613	137.02	274.04	34.26	68.51	154.15	239.79	0	0	119.89	34.26	34.26	-85.64	0	-17.13	-154.15	-445.32
614	102.77	325.42	119.89	119.89	119.89	205.53	17.13	0	68.51	0	17.13	-51.38	51.38	34.26	-171.28	-171.28
615	102.77	325.42	188.4	154.15	68.51	154.15	0	34.26	-17.13	0	51.38	0	256.91	171.28	-102.77	325.42
616	137.02	256.91	171.28	119.89	68.51	119.89	-34.26	17.13	0	17.13	51.38	34.26	291.17	171.28	-137.02	479.57
617	205.53	222.66	205.53	51.38	85.64	17.13	17.13	0	51.38	17.13	-34.26	85.64	239.79	171.28	-325.42	428.19
618	222.66	239.79	239.79	119.89	68.51	-34.26	0	34.26	85.64	0	-51.38	34.26	171.28	154.15	-445.32	325.42
619	188.4	359.68	256.91	205.53	34.26	-68.51	0	34.26	85.64	-154.15	-171.28	-68.51	-34.26	0	-445.32	119.89
620	119.89	359.68	171.28	171.28	68.51	-137.02	-51.38	-17.13	-17.13	-154.15	-154.15	-171.28	-119.89	-85.64	-411.06	-34.26
621	119.89	291.17	17.13	0	119.89	-137.02	-171.28	-154.15	-85.64	-51.38	-102.77	-256.91	-325.42	-325.42	-291.17	-342.55
622	137.02	239.79	0	0	137.02	-137.02	-222.66	-222.66	-85.64	0	-34.26	-222.66	-376.81	-359.68	-274.04	-513.83
623	119.89	102.77	-68.51	-34.26	17.13	-205.53	-291.17	-256.91	-119.89	17.13	0	-188.4	-291.17	-274.04	-274.04	-616.59
624	0	17.13	-137.02	-51.38	-17.13	-274.04	-291.17	-274.04	-222.66	17.13	-17.13	-171.28	-222.66	-171.28	-274.04	-548.08
625	-171.28	-239.79	-393.93	-393.93	-256.91	-342.55	-376.81	-411.06	-822.12	-85.64	-119.89	-291.17	-102.77	0	-51.38	-68.51
626	-154.15	-256.91	-428.19	-479.57	-291.17	-342.55	-445.32	-530.95	-890.63	-102.77	-154.15	-342.55	-102.77	-34.26	0	51.38
627	-102.77	-171.28	-359.68	-479.57	-222.66	-359.68	-582.34	-633.72	-702.23	-205.53	-205.53	-342.55	-85.64	-34.26	-34.26	256.91
628	-51.38	-137.02	-325.42	-411.06	-137.02	-411.06	-530.95	-616.59	-565.21	-239.79	-205.53	-274.04	-51.38	-17.13	-34.26	291.17
629	-85.64	-102.77	-308.3	-308.3	-34.26	-411.06	-256.91	-359.68	-445.32	-188.4	-222.66	-85.64	-17.13	34.26	17.13	428.19
630	-51.38	-119.89	-325.42	-291.17	-17.13	-325.42	-85.64	-274.04	-411.06	-205.53	-239.79	-34.26	17.13	68.51	51.38	479.57
631	-51.38	-34.26	-171.28	-239.79	-85.64	-102.77	17.13	-239.79	-342.55	-239.79	-239.79	-51.38	17.13	119.89	85.64	479.57
632	-85.64	17.13	-51.38	-171.28	-85.64	-51.38	34.26	-256.91	-291.17	-239.79	-256.91	-85.64	-17.13	68.51	34.26	376.81
633	-51.38	188.4	119.89	34.26	-51.38	-85.64	85.64	-205.53	-34.26	-171.28	-222.66	-222.66	-222.66	-51.38	-119.89	0
634	-34.26	308.3	239.79	119.89	-34.26	-137.02	171.28	-85.64	68.51	-137.02	-222.66	-256.91	-325.42	-171.28	-222.66	-239.79
635	0	393.93	308.3	188.4	0	-34.26	376.81	119.89	188.4	-51.38	-154.15	-205.53	-462.44	-359.68	-274.04	-582.34
636	34.26	393.93	291.17	188.4	17.13	68.51	428.19	205.53	154.15	-34.26	-34.26	-137.02	-462.44	-393.93	-256.91	-616.59
637	188.4	376.81	154.15	68.51	205.53	445.32	376.81	154.15	17.13	188.4	239.79	0	-342.55	-325.42	-137.02	-411.06
638	222.66	393.93	119.89	17.13	274.04	565.21	325.42	102.77	-17.13	291.17	376.81	68.51	-239.79	-239.79	-34.26	-256.91
639	205.53	393.93	17.13	-34.26	274.04	548.08	188.4	34.26	51.38	376.81	496.7	239.79	34.26	-17.13	256.91	68.51
640	137.02	359.68	-51.38	-68.51	205.53	496.7	119.89	34.26	85.64	393.93	496.7	325.42	205.53	68.51	479.57	291.17
641	68.51	325.42	-171.28	-171.28	85.64	445.32	-34.26	119.89	68.51	479.57	530.95	685.1	736.48	633.72	1010.52	959.14
642	85.64	325.42	-154.15	-171.28	68.51	445.32	0	119.89	34.26	428.19	479.57	753.61	804.99	753.61	1010.52	1096.16
643	85.64	308.3	-102.77	-137.02	34.26	256.91	68.51	68.51	0	119.89	119.89	616.59	736.48	736.48	667.97	1010.52
644	34.26	274.04	-51.38	-51.38	0	68.51	51.38	51.38	34.26	-51.38	-85.64	411.06	599.46	565.21	359.68	787.87
645	-17.13	205.53	119.89	154.15	-34.26	-154.15	0	85.64	291.17	-342.55	-393.93	85.64	188.4	188.4	-171.28	188.4
646	0	188.4	205.53	274.04	-51.38	-205.53	0	171.28	393.93	-342.55	-445.32	0	17.13	17.13	-342.55	-17.13
647	0	137.02	256.91	291.17	-34.26	-205.53	0	188.4	411.06	-274.04	-462.44	-102.77	-171.28	-102.77	-445.32	-291.17
648	0	68.51	154.15	188.4	-34.26	-222.66	-17.13	68.51	308.3	-291.17	-462.44	-205.53	-239.79	-119.89	-496.7	-342.55
649	-17.13	-34.26	-51.38	17.13	-102.77	-359.68	-256.91	-222.66	137.02	-376.81	-462.44	-325.42	-274.04	-137.02	-685.1	-393.93
650	34.26	-85.64	-85.64	34.26	-51.38	-325.42	-325.42	-256.91	154.15	-325.42	-325.42	-274.04	-256.91	-119.89	-685.1	-411.06
651	188.4	34.26	85.64	205.53	154.15	17.13	-119.89	-17.13	291.17	-34.26	17.13	34.26	-34.26	0	-428.19	-291.17
652	205.53	137.02	188.4	274.04	274.04	154.15	34.26	188.4	359.68	154.15	188.4	256.91	51.38	51.38	-171.28	-154.15
653	34.26	17.13	68.51	137.02	188.4	256.91	154.15	308.3	205.53	222.66	274.04	376.81	256.91	171.28	239.79	85.64
654	-51.38	-137.02	-68.51	17.13	0	154.15	34.26	205.53	68.51	137.02	188.4	291.17	256.91	154.15	325.42	154.15
655	-325.42	-496.7	-171.28	-34.26	-256.91	-85.64	-256.91	-85.64	-17.13	0	0	34.26	119.89	17.13	445.32	188.4
656	-342.55	-513.83	-102.77	17.13	-256.91	-171.28	-291.17	-137.02	0	-51.38	-85.64	0	68.51	0	496.7	171.28
657	-102.77	-34.26	-34.26	17.13	-119.89	-222.66	-119.89	-85.64	-34.26	-119.89	-274.04	-376.81	-85.64	0	239.79	17.13
658	-34.26	-34.26	-102.77	-34.26	-119.89	-291.17	-205.53	-154.15	-102.77	-222.66	-393.93	-565.21	-274.04	-85.64	17.13	-154.15
659	-34.26	-68.51	-85.64	17.13	-171.28	-325.42	-376.81	-342.55	-85.64	-462.44	-616.59	-822.12	-633.72	-462.44	-582.34	-530.95
660	-17.13	-137.02	0	34.26	-171.28	-325.42	-376.81	-342.55	17.13	-513.83	-616.59	-787.87	-702.23	-530.95	-719.36	-616.59
661	-34.26	-51.38	188.4	154.15	-85.64	-188.4	-171.28	-85.64	137.02	-411.06	-428.19	-462.44	-513.83	-376.81	-616.59	-479.57
662	0	0	188.4	154.15	-51.38	-51.38	0	0	154.15	-256.91	-239.79	-239.79	-342.55	-239.79	-462.44	-376.81
663	0	119.89	0	51.38	0	188.4	85.64	119.89	68.51	17.13	68.51	85.64	-119.89	-85.64	-342.55	-222.66
664	34.26	137.02	-17.13	34.26	0	239.79	34.26	51.38	34.26	119.89	137.02	188.4	-34.26	-51.38	-376.81	-102.77
665	68.51	154.15	34.26	68.51	17.13	222.66	0	17.13	68.51	85.64	154.15	308.3	171.28	51.38	-205.53	291.17
666	17.13	171.28	119.89	119.89	51.38	171.28	0	34.26	119.89	34.26	137.02	359.68	325.42	188.4	-34.26	565.21
667	-34.26	85.64	119.89	17.13	51.38	102.77	-34.26	68.51	154.15	17.13	102.77	256.91	513.83	411.06	256.91	787.87
668	-85.64	0	0	-17.13	0	34.26	-102.77	34.26	137.02	17.13	17.13	137.02	496.7	411.06	256.91	685.1
669	-119.89	-119.89	-171.28	-119.89	-137.02	-102.77	-239.79	-34.26	68.51	-51.38	-137.02	-102.77	308.3	239.79	119.89	428.19
670	-154.15	-119.89	-222.66	-119.89	-222.66	-171.28	-239.79	-51.38	51.38	-171.28	-239.79	-205.53	256.91	171.28	51.38	393.93
671	-222.66	-154.15	-154.15	-102.77	-342.55	-274.04	-205.53	-34.26	17.13	-342.55	-342.55	-325.42	154.15	137.02	171.28	411.06
672	-239.79	-239.79	-119.89	-85.64	-342.55	-291.17	-205.53	-34.26	0	-342.55	-342.55	-376.81	68.51	85.64	274.04	325.42
673	-137.02	-479.57	-222.66	-205.53	-171.28	-359.68	-359.68	-205.53	-85.64	-239.79	-342.55	-565.21	-445.32	-274.04	119.89	-171.28
674	-119.89	-445.32	-256.91	-256.91	-119.89	-376.81	-359.68	-239.79	-137.02	-239.79	-325.42	-565.21	-582.34	-411.06	-34.26	-325.42
675	-51.38	-239.79	-171.28	-205.53	-34.26	-291.17	-119.89	-102.77	-154.15	-137.02	-102.77	-342.55	-582.34	-496.7	-34.26	-325.42
676	0	-137.02	-34.26	-85.64	34.26	-154.15	34.26	17.13	-102.77	0	68.51	-137.02	-462.44	-445.32	137.02	-239.79
677	188.4	17.13	119.89	85.64	171.28	239.79	393.93	256.91	0	359.68	479.57	154.15	-68.51	-205.53	548.08	0
678	239.79	0	137.02	68.51	205.53	393.93	428.19	291.17	17.13	393.93	513.83	239.79	68.51	-68.51	633.72	34.26
679	137.02	-17.13	-17.13	-85.64	137.02	393.93	325.42	205.53	-34.26	171.28	308.3	256.91	359.68	154.15	599.46	393.93
680	17.13	0	-17.13	-171.28	0	256.91	205.53	188.4	0	34.26	188.4	308.3	496.7	325.42	582.34	633.72
681	-137.02	-51.38	17.13	-154.15	-274.04	0	17.13	154.15	119.89	0	119.89	342.55	633.72	548.08	548.08	959.14
682	-205.53	-68.51	85.64	-85.64	-342.55	-34.26	0	154.15	137.02	68.51	137.02	274.04	616.59	565.21	479.57	907.76
683	-256.91	-171.28	68.51	-68.51	-325.42	-102.77	17.13	51.38	85.64	85.64	34.26	-17.13	239.79	274.04	205.53	376.81
684	-222.66	-205.53	68.51	-102.77	-188.4	-102.77	-34.26	17.13	34.26	0	0	-137.02	0	34.26	51.38	34.26
685	-119.89	-274.04	0	-205.53	-51.38	-205.53	-274.04	-205.53	-51.38	-85.64	-171.28	-411.06	-479.57	-376.81	-17.13	-411.06
686	-119.89	-274.04	-17.13	-222.66	-51.38	-274.04	-393.93	-291.17	-102.77	-154.15	-205.53	-496.7	-736.48	-548.08	-34.26	-565.21
687	-222.66	-342.55	-137.02	-291.17	-222.66	-513.83	-582.34	-530.95	-205.53	-256.91	-308.3	-667.97	-976.27	-753.61	-154.15	-770.74
688	-291.17	-393.93	-205.53	-393.93	-325.42	-599.46	-582.34	-582.34	-222.66	-256.91	-342.55	-702.23	-1010.52	-822.12	-222.66	-873.5
689	-85.64	-222.66	-222.66	-462.44	-188.4	-274.04	-325.42	-496.7	-274.04	0	-17.13	-376.81	-942.01	-839.25	-51.38	-1096.16
690	17.13	-137.02	-188.4	-428.19	0	-51.38	-171.28	-393.93	-222.66	137.02	154.15	-239.79	-856.38	-787.87	51.38	-1061.91
691	119.89	-34.26	-291.17	-376.81	154.15	119.89	-85.64	-342.55	-137.02	154.15	274.04	-102.77	-582.34	-548.08	137.02	-702.23
692	85.64	-17.13	-342.55	-393.93	188.4	85.64	-154.15	-376.81	-51.38	68.51	188.4	-85.64	-411.06	-342.55	119.89	-393.93
693	-17.13	-17.13	-445.32	-479.57	17.13	-102.77	-462.44	-428.19	-51.38	-34.26	-51.38	-85.64	0	68.51	17.13	256.91
694	-34.26	-34.26	-496.7	-548.08	-137.02	-205.53	-582.34	-462.44	-51.38	-68.51	-154.15	-85.64	188.4	256.91	0	513.83
695	0	17.13	-565.21	-582.34	-239.79	-325.42	-633.72	-462.44	-34.26	-119.89	-239.79	-102.77	428.19	445.32	-274.04	736.48
696	0	-17.13	-565.21	-530.95	-188.4	-291.17	-513.83	-376.81	-34.26	-137.02	-222.66	-102.77	428.19	445.32	-376.81	685.1
697	119.89	17.13	-496.7	-496.7	34.26	-154.15	-222.66	-205.53	-34.26	-137.02	-222.66	-119.89	171.28	171.28	-393.93	291.17
698	188.4	51.38	-393.93	-428.19	171.28	-102.77	-102.77	-119.89	-51.38	-85.64	-205.53	-137.02	-17.13	-17.13	-376.81	0
699	205.53	0	-256.91	-342.55	239.79	-119.89	-85.64	-102.77	-17.13	0	-154.15	-291.17	-359.68	-342.55	-530.95	-582.34
700	119.89	0	-222.66	-291.17	154.15	-154.15	-85.64	-119.89	-34.26	-17.13	-171.28	-376.81	-445.32	-445.32	-685.1	-787.87
701	-51.38	-171.28	-205.53	-171.28	-34.26	-154.15	-34.26	-34.26	0	-137.02	-222.66	-462.44	-565.21	-496.7	-753.61	-993.4
702	-102.77	-256.91	-154.15	-154.15	-102.77	-154.15	17.13	-17.13	0	-154.15	-222.66	-479.57	-599.46	-513.83	-599.46	-1010.52
703	0	-325.42	-154.15	-154.15	0	-119.89	34.26	-34.26	-102.77	0	-119.89	-411.06	-650.85	-599.46	-119.89	-1010.52
704	17.13	-274.04	-171.28	-171.28	34.26	-102.77	17.13	-51.38	-102.77	34.26	-34.26	-325.42	-616.59	-582.34	34.26	-976.27
705	0	-17.13	-119.89	-85.64	85.64	0	-17.13	0	-51.38	68.51	137.02	34.26	-154.15	-256.91	274.04	-462.44
706	-17.13	0	-17.13	0	34.26	-34.26	0	34.26	-51.38	68.51	137.02	137.02	0	-102.77	274.04	-205.53
707	85.64	0	154.15	119.89	17.13	34.26	51.38	85.64	0	171.28	171.28	274.04	188.4	171.28	171.28	188.4
708	188.4	51.38	188.4	154.15	68.51	119.89	154.15	137.02	119.89	239.79	188.4	308.3	291.17	308.3	85.64	325.42
709	239.79	85.64	119.89	119.89	205.53	291.17	291.17	188.4	291.17	137.02	68.51	274.04	393.93	445.32	-102.77	359.68
710	119.89	0	17.13	51.38	154.15	274.04	274.04	171.28	256.91	-34.26	-51.38	119.89	308.3	411.06	-274.04	205.53
711	-205.53	-205.53	-102.77	0	-85.64	0	0	-17.13	34.26	-359.68	-445.32	-222.66	17.13	85.64	-616.59	-171.28
712	-256.91	-222.66	-102.77	-17.13	-205.53	-154.15	-119.89	-102.77	0	-462.44	-513.83	-359.68	-137.02	-34.26	-753.61	-359.68
713	-85.64	-17.13	34.26	17.13	-68.51	-188.4	0	0	0	-445.32	-513.83	-445.32	-188.4	-34.26	-942.01	-359.68
714	0	102.77	102.77	34.26	0	-119.89	34.26	17.13	0	-376.81	-496.7	-513.83	-171.28	-34.26	-1061.91	-308.3
715	0	-17.13	-17.13	-137.02	-17.13	-102.77	-34.26	0	-102.77	-376.81	-565.21	-667.97	-325.42	-34.26	-1181.8	-445.32
716	-137.02	-171.28	-188.4	-256.91	-68.51	-222.66	-188.4	-188.4	-171.28	-359.68	-530.95	-667.97	-462.44	-222.66	-1113.29	-599.46
717	-274.04	-325.42	-188.4	-222.66	-171.28	-256.91	-342.55	-256.91	-68.51	-102.77	-137.02	-376.81	-445.32	-325.42	-342.55	-633.72
718	-239.79	-256.91	-51.38	-119.89	-137.02	-137.02	-239.79	-137.02	0	17.13	34.26	-205.53	-308.3	-205.53	34.26	-496.7
719	-154.15	-68.51	154.15	51.38	-85.64	-17.13	-34.26	0	17.13	205.53	137.02	-119.89	-102.77	17.13	308.3	-411.06
720	-51.38	0	154.15	102.77	-51.38	-51.38	-51.38	0	17.13	85.64	0	-188.4	-137.02	-34.26	119.89	-513.83
721	205.53	376.81	188.4	171.28	-34.26	-393.93	-393.93	-171.28	68.51	-462.44	-428.19	-205.53	-239.79	-256.91	-376.81	-787.87
722	256.91	496.7	222.66	239.79	17.13	-342.55	-428.19	-154.15	154.15	-565.21	-462.44	-102.77	-222.66	-256.91	-376.81	-702.23
723	137.02	376.81	342.55	359.68	-51.38	-274.04	-479.57	-34.26	325.42	-513.83	-411.06	-68.51	-171.28	-188.4	-393.93	-462.44
724	34.26	222.66	393.93	393.93	-154.15	-274.04	-462.44	-34.26	342.55	-411.06	-342.55	-68.51	-154.15	-154.15	-428.19	-342.55
725	85.64	291.17	599.46	479.57	-137.02	-102.77	-325.42	17.13	308.3	-171.28	-154.15	17.13	0	17.13	-376.81	-154.15
726	188.4	496.7	599.46	496.7	-17.13	0	-256.91	119.89	256.91	-119.89	-102.77	17.13	0	68.51	-325.42	-85.64
727	222.66	702.23	479.57	342.55	-17.13	34.26	-256.91	137.02	102.77	-154.15	-239.79	-256.91	-68.51	68.51	-393.93	-205.53
728	137.02	565.21	308.3	205.53	-51.38	-51.38	-376.81	0	17.13	-256.91	-359.68	-462.44	-256.91	0	-530.95	-325.42
729	17.13	137.02	34.26	17.13	-171.28	-411.06	-513.83	-205.53	0	-376.81	-496.7	-702.23	-445.32	-256.91	-702.23	-462.44
730	68.51	34.26	17.13	17.13	-119.89	-445.32	-411.06	-222.66	-17.13	-291.17	-411.06	-650.85	-445.32	-274.04	-599.46	-376.81
731	239.79	188.4	68.51	34.26	85.64	-171.28	-85.64	-51.38	-51.38	0	-137.02	-393.93	-239.79	-222.66	-154.15	-68.51
732	256.91	239.79	0	-17.13	154.15	-34.26	0	-34.26	-171.28	51.38	-34.26	-274.04	-171.28	-239.79	-34.26	17.13
733	85.64	51.38	-342.55	-376.81	0	-34.26	-119.89	-222.66	-462.44	-17.13	-119.89	-205.53	-222.66	-376.81	85.64	205.53
734	-51.38	-137.02	-479.57	-479.57	-205.53	-137.02	-222.66	-325.42	-496.7	-154.15	-239.79	-154.15	-239.79	-376.81	34.26	308.3
735	-359.68	-513.83	-462.44	-376.81	-496.7	-325.42	-342.55	-291.17	-274.04	-359.68	-411.06	-51.38	-85.64	-154.15	-119.89	496.7
736	-393.93	-565.21	-325.42	-239.79	-496.7	-342.55	-342.55	-205.53	-137.02	-359.68	-445.32	-34.26	-34.26	-17.13	-205.53	513.83
737	-205.53	-325.42	-137.02	-119.89	-171.28	-342.55	-325.42	-171.28	-171.28	-393.93	-513.83	-342.55	-154.15	-85.64	-376.81	239.79
738	-102.77	-239.79	-154.15	-171.28	-102.77	-342.55	-291.17	-256.91	-256.91	-445.32	-565.21	-479.57	-342.55	-222.66	-479.57	34.26
739	17.13	-85.64	-171.28	-205.53	-51.38	-222.66	-222.66	-342.55	-222.66	-445.32	-462.44	-565.21	-582.34	-496.7	-685.1	-359.68
740	68.51	17.13	-137.02	-137.02	-51.38	-137.02	-137.02	-325.42	-154.15	-359.68	-342.55	-496.7	-599.46	-582.34	-685.1	-496.7
741	85.64	-17.13	-137.02	-119.89	0	-51.38	-17.13	-222.66	-137.02	-102.77	-51.38	-359.68	-496.7	-565.21	-325.42	-359.68
742	68.51	-85.64	-102.77	-85.64	0	-34.26	0	-154.15	-171.28	0	17.13	-342.55	-376.81	-445.32	0	-102.77
743	34.26	-137.02	-34.26	0	119.89	0	154.15	-34.26	-137.02	188.4	137.02	-325.42	-102.77	-119.89	428.19	428.19
744	34.26	-34.26	34.26	34.26	171.28	85.64	239.79	85.64	-68.51	256.91	171.28	-256.91	0	-34.26	565.21	582.34
745	34.26	119.89	51.38	34.26	154.15	256.91	274.04	188.4	-34.26	274.04	171.28	-171.28	119.89	119.89	513.83	513.83
746	-17.13	68.51	0	17.13	68.51	188.4	205.53	171.28	0	274.04	171.28	-102.77	154.15	171.28	479.57	479.57
747	-51.38	-34.26	-188.4	-137.02	-85.64	34.26	34.26	102.77	17.13	256.91	222.66	68.51	308.3	308.3	565.21	667.97
748	-51.38	-85.64	-205.53	-171.28	-51.38	17.13	17.13	68.51	17.13	308.3	256.91	256.91	411.06	376.81	633.72	787.87
749	85.64	0	-51.38	0	154.15	154.15	154.15	205.53	85.64	308.3	256.91	565.21	496.7	411.06	616.59	667.97
750	154.15	68.51	34.26	34.26	256.91	239.79	274.04	291.17	154.15	188.4	205.53	599.46	445.32	359.68	445.32	496.7
751	102.77	171.28	256.91	222.66	188.4	256.91	462.44	445.32	256.91	-34.26	-34.26	393.93	188.4	188.4	0	34.26
752	17.13	411.06	616.59	565.21	51.38	308.3	565.21	428.19	359.68	154.15	119.89	137.02	256.91	411.06	17.13	34.26
753	274.04	685.1	445.32	428.19	188.4	445.32	428.19	308.3	291.17	411.06	376.81	154.15	256.91	359.68	890.63	513.83
754	256.91	667.97	376.81	325.42	171.28	428.19	325.42	256.91	188.4	376.81	359.68	119.89	205.53	359.68	1010.52	616.59
755	154.15	513.83	359.68	291.17	154.15	239.79	-34.26	119.89	34.26	188.4	171.28	-34.26	119.89	291.17	736.48	616.59
756	154.15	479.57	393.93	376.81	171.28	119.89	-137.02	68.51	51.38	137.02	119.89	0	85.64	291.17	496.7	530.95
757	308.3	548.08	479.57	548.08	239.79	34.26	-137.02	154.15	205.53	137.02	137.02	51.38	188.4	325.42	188.4	428.19
758	359.68	616.59	496.7	565.21	256.91	85.64	0	239.79	274.04	188.4	171.28	154.15	274.04	359.68	188.4	393.93
759	393.93	633.72	513.83	496.7	376.81	291.17	188.4	376.81	291.17	274.04	239.79	291.17	308.3	376.81	239.79	188.4
760	393.93	599.46	513.83	445.32	445.32	376.81	256.91	411.06	291.17	274.04	205.53	274.04	274.04	308.3	154.15	51.38
761	479.57	616.59	513.83	479.57	548.08	411.06	274.04	445.32	376.81	205.53	205.53	239.79	154.15	171.28	-137.02	-154.15
762	582.34	667.97	513.83	513.83	548.08	411.06	359.68	479.57	445.32	239.79	239.79	256.91	119.89	119.89	-291.17	-222.66
763	719.36	839.25	599.46	667.97	582.34	582.34	616.59	633.72	565.21	359.68	376.81	428.19	205.53	119.89	-291.17	-188.4
764	736.48	907.76	667.97	719.36	633.72	736.48	753.61	736.48	565.21	445.32	445.32	530.95	308.3	188.4	-171.28	-171.28
765	633.72	1010.52	770.74	787.87	753.61	993.4	839.25	856.38	582.34	650.85	650.85	616.59	548.08	393.93	119.89	-68.51
766	599.46	976.27	787.87	804.99	753.61	1044.78	839.25	856.38	565.21	719.36	736.48	599.46	565.21	496.7	239.79	0
767	548.08	839.25	719.36	719.36	616.59	959.14	719.36	753.61	445.32	736.48	804.99	479.57	565.21	548.08	530.95	154.15
768	496.7	719.36	633.72	633.72	513.83	822.12	667.97	616.59	376.81	770.74	873.5	445.32	496.7	496.7	736.48	239.79
769	496.7	479.57	359.68	325.42	548.08	565.21	496.7	359.68	154.15	736.48	839.25	513.83	411.06	445.32	976.27	616.59
770	479.57	479.57	256.91	256.91	582.34	548.08	462.44	308.3	188.4	650.85	719.36	548.08	393.93	445.32	856.38	702.23
771	445.32	359.68	154.15	239.79	513.83	428.19	325.42	239.79	239.79	376.81	393.93	462.44	359.68	445.32	496.7	650.85
772	342.55	291.17	154.15	256.91	462.44	308.3	239.79	205.53	256.91	256.91	274.04	376.81	256.91	376.81	359.68	513.83
773	308.3	188.4	222.66	308.3	428.19	137.02	205.53	205.53	222.66	239.79	256.91	359.68	171.28	308.3	342.55	291.17
774	256.91	171.28	291.17	308.3	393.93	137.02	274.04	188.4	239.79	291.17	274.04	342.55	188.4	308.3	359.68	205.53
775	376.81	205.53	308.3	308.3	393.93	239.79	342.55	205.53	154.15	274.04	188.4	188.4	119.89	239.79	85.64	0
776	428.19	291.17	308.3	256.91	428.19	274.04	308.3	188.4	119.89	171.28	68.51	85.64	17.13	85.64	-102.77	-102.77
777	479.57	393.93	205.53	188.4	548.08	359.68	256.91	154.15	119.89	85.64	34.26	0	0	-85.64	-445.32	-393.93
778	462.44	428.19	205.53	188.4	582.34	376.81	274.04	171.28	154.15	137.02	137.02	17.13	17.13	-85.64	-342.55	-411.06
779	308.3	274.04	188.4	188.4	513.83	462.44	325.42	256.91	256.91	291.17	376.81	274.04	274.04	137.02	188.4	-51.38
780	154.15	154.15	205.53	188.4	359.68	462.44	411.06	325.42	239.79	325.42	445.32	342.55	393.93	274.04	479.57	154.15
781	0	34.26	119.89	171.28	85.64	393.93	445.32	342.55	188.4	274.04	325.42	274.04	445.32	428.19	804.99	548.08
782	-34.26	0	51.38	119.89	0	308.3	359.68	274.04	102.77	188.4	239.79	188.4	428.19	428.19	736.48	616.59
783	-85.64	-51.38	-51.38	-17.13	-85.64	0	0	17.13	-85.64	17.13	51.38	85.64	308.3	325.42	496.7	565.21
784	-85.64	-102.77	-68.51	-34.26	-51.38	-102.77	-102.77	-68.51	-154.15	0	0	68.51	239.79	256.91	393.93	513.83
785	0	17.13	102.77	51.38	34.26	-154.15	0	0	-34.26	-51.38	-34.26	68.51	51.38	85.64	85.64	411.06
786	68.51	154.15	205.53	171.28	51.38	-85.64	85.64	137.02	51.38	-85.64	-102.77	68.51	17.13	51.38	17.13	393.93
787	119.89	291.17	359.68	291.17	51.38	0	171.28	274.04	171.28	-137.02	-205.53	51.38	-51.38	-34.26	0	308.3
788	119.89	291.17	291.17	256.91	51.38	-17.13	85.64	171.28	119.89	-154.15	-222.66	17.13	-154.15	-119.89	-51.38	239.79
789	137.02	274.04	119.89	85.64	68.51	0	-17.13	-85.64	-34.26	-222.66	-256.91	-51.38	-325.42	-291.17	-325.42	-17.13
790	154.15	291.17	68.51	51.38	68.51	0	-34.26	-137.02	-102.77	-205.53	-239.79	-137.02	-342.55	-342.55	-479.57	-171.28
791	188.4	359.68	188.4	137.02	154.15	119.89	34.26	0	-34.26	-34.26	-51.38	-137.02	-205.53	-291.17	-445.32	-359.68
792	205.53	376.81	291.17	205.53	274.04	188.4	154.15	154.15	34.26	85.64	85.64	-17.13	-34.26	-171.28	-171.28	-325.42
793	222.66	325.42	445.32	393.93	445.32	445.32	411.06	479.57	325.42	445.32	513.83	308.3	359.68	154.15	496.7	0
794	205.53	291.17	411.06	428.19	428.19	565.21	513.83	565.21	428.19	513.83	616.59	479.57	565.21	393.93	787.87	291.17
795	137.02	239.79	291.17	393.93	239.79	599.46	376.81	496.7	359.68	411.06	530.95	530.95	736.48	736.48	959.14	839.25
796	85.64	188.4	205.53	308.3	137.02	428.19	154.15	308.3	205.53	325.42	428.19	445.32	667.97	753.61	907.76	959.14
797	17.13	119.89	137.02	154.15	34.26	17.13	-154.15	0	17.13	205.53	256.91	256.91	376.81	496.7	616.59	753.61
798	34.26	85.64	137.02	119.89	17.13	-119.89	-239.79	-102.77	17.13	154.15	205.53	171.28	239.79	308.3	445.32	548.08
799	137.02	188.4	154.15	154.15	17.13	-119.89	-222.66	-102.77	34.26	0	17.13	34.26	-17.13	85.64	119.89	188.4
800	222.66	291.17	154.15	137.02	102.77	-34.26	-171.28	-85.64	17.13	0	0	0	-85.64	17.13	17.13	68.51
801	428.19	308.3	34.26	-34.26	393.93	0	-205.53	-239.79	-85.64	0	-85.64	-119.89	-445.32	-222.66	-51.38	-342.55
802	376.81	274.04	51.38	-17.13	393.93	-34.26	-256.91	-291.17	-85.64	0	-85.64	-119.89	-530.95	-325.42	-102.77	-479.57
803	188.4	85.64	68.51	51.38	239.79	-171.28	-222.66	-291.17	-34.26	-51.38	-51.38	-51.38	-513.83	-411.06	-51.38	-445.32
804	68.51	17.13	34.26	68.51	239.79	-171.28	-137.02	-205.53	-68.51	-34.26	-34.26	0	-428.19	-376.81	0	-325.42
805	0	-256.91	-137.02	-51.38	222.66	-119.89	0	-102.77	-102.77	34.26	34.26	0	-205.53	-256.91	205.53	-154.15
806	-34.26	-428.19	-274.04	-171.28	154.15	-154.15	34.26	-85.64	-137.02	51.38	68.51	0	-137.02	-205.53	222.66	-171.28
807	-85.64	-616.59	-376.81	-274.04	17.13	-256.91	34.26	-119.89	-137.02	0	137.02	-17.13	-34.26	-154.15	171.28	-154.15
808	-85.64	-599.46	-308.3	-239.79	17.13	-291.17	17.13	-119.89	-119.89	34.26	188.4	-34.26	17.13	-51.38	239.79	-17.13
809	0	-411.06	-171.28	-119.89	154.15	-222.66	119.89	-34.26	-137.02	154.15	274.04	119.89	256.91	188.4	479.57	445.32
810	0	-342.55	-205.53	-119.89	171.28	-137.02	154.15	-34.26	-137.02	137.02	205.53	154.15	308.3	274.04	496.7	548.08
811	0	-359.68	-291.17	-205.53	17.13	-137.02	119.89	0	-119.89	-85.64	0	0	85.64	171.28	188.4	274.04
812	-51.38	-376.81	-274.04	-222.66	-119.89	-239.79	51.38	0	-102.77	-274.04	-222.66	-137.02	-85.64	17.13	-34.26	17.13
813	-51.38	-222.66	-51.38	-51.38	-85.64	-376.81	0	-85.64	-17.13	-445.32	-411.06	-274.04	-393.93	-239.79	-308.3	-291.17
814	-17.13	-85.64	34.26	17.13	0	-359.68	-17.13	-119.89	-17.13	-376.81	-376.81	-256.91	-479.57	-325.42	-342.55	-393.93
815	119.89	34.26	119.89	68.51	68.51	-205.53	-85.64	-222.66	-119.89	-239.79	-342.55	-274.04	-530.95	-393.93	-359.68	-616.59
816	137.02	0	34.26	34.26	34.26	-154.15	-137.02	-274.04	-205.53	-239.79	-359.68	-376.81	-616.59	-479.57	-376.81	-719.36
817	-17.13	-205.53	-51.38	-17.13	17.13	-325.42	-325.42	-411.06	-256.91	-256.91	-359.68	-513.83	-804.99	-685.1	-85.64	-633.72
818	-17.13	-171.28	-34.26	0	17.13	-342.55	-291.17	-411.06	-256.91	-171.28	-256.91	-445.32	-736.48	-650.85	85.64	-479.57
819	-17.13	-51.38	17.13	0	-17.13	-154.15	-85.64	-222.66	-171.28	0	0	-85.64	-479.57	-479.57	445.32	-102.77
820	0	-34.26	85.64	51.38	-34.26	-34.26	51.38	-51.38	-102.77	137.02	154.15	51.38	-291.17	-325.42	599.46	68.51
821	137.02	205.53	325.42	239.79	68.51	376.81	428.19	205.53	85.64	393.93	445.32	308.3	-34.26	-34.26	804.99	616.59
822	256.91	393.93	428.19	342.55	239.79	530.95	530.95	308.3	171.28	445.32	530.95	359.68	137.02	137.02	787.87	787.87
823	359.68	633.72	548.08	462.44	411.06	650.85	582.34	411.06	205.53	325.42	411.06	308.3	393.93	393.93	359.68	753.61
824	325.42	599.46	565.21	496.7	325.42	599.46	513.83	428.19	239.79	188.4	256.91	274.04	479.57	479.57	0	565.21
825	102.77	342.55	650.85	582.34	-34.26	359.68	325.42	445.32	342.55	0	17.13	188.4	411.06	513.83	-445.32	188.4
826	0	222.66	633.72	599.46	-154.15	188.4	222.66	428.19	376.81	-34.26	-34.26	154.15	291.17	445.32	-496.7	68.51
827	17.13	205.53	479.57	428.19	-154.15	-34.26	68.51	274.04	308.3	0	-17.13	68.51	68.51	205.53	-274.04	-85.64
828	0	239.79	308.3	239.79	-17.13	0	34.26	188.4	205.53	-34.26	-34.26	68.51	34.26	85.64	-119.89	-171.28
829	85.64	188.4	17.13	-34.26	205.53	119.89	17.13	34.26	34.26	-17.13	-17.13	119.89	51.38	0	137.02	-256.91
830	34.26	68.51	-137.02	-137.02	154.15	205.53	34.26	34.26	17.13	-17.13	0	154.15	68.51	0	308.3	-171.28
831	-119.89	-119.89	-222.66	-188.4	-222.66	154.15	34.26	-17.13	17.13	0	34.26	137.02	68.51	34.26	548.08	68.51
832	-239.79	-188.4	-205.53	-205.53	-393.93	68.51	0	17.13	34.26	0	0	51.38	68.51	68.51	530.95	171.28
833	-205.53	-171.28	-102.77	-154.15	-102.77	-137.02	17.13	85.64	0	-154.15	-188.4	-102.77	102.77	68.51	188.4	137.02
834	-102.77	-171.28	-68.51	-102.77	17.13	-137.02	17.13	137.02	0	-85.64	-205.53	-137.02	154.15	102.77	102.77	119.89
835	-17.13	-137.02	-51.38	17.13	17.13	17.13	154.15	256.91	0	0	-154.15	-137.02	291.17	205.53	-17.13	137.02
836	-34.26	-85.64	0	17.13	0	34.26	222.66	325.42	17.13	-17.13	-85.64	-51.38	376.81	239.79	-51.38	188.4
837	34.26	17.13	17.13	-17.13	102.77	256.91	325.42	359.68	34.26	-17.13	-17.13	85.64	565.21	325.42	-274.04	325.42
838	154.15	85.64	-17.13	0	256.91	359.68	325.42	376.81	34.26	17.13	85.64	205.53	616.59	393.93	-291.17	445.32
839	256.91	68.51	17.13	17.13	359.68	411.06	325.42	342.55	0	154.15	205.53	359.68	650.85	513.83	-256.91	616.59
840	188.4	17.13	68.51	68.51	239.79	359.68	274.04	325.42	17.13	154.15	188.4	308.3	599.46	513.83	-291.17	530.95
841	-171.28	-222.66	85.64	119.89	-171.28	119.89	137.02	239.79	119.89	-51.38	-17.13	34.26	359.68	291.17	-582.34	51.38
842	-342.55	-325.42	51.38	102.77	-325.42	-34.26	51.38	205.53	205.53	-205.53	-154.15	-51.38	171.28	119.89	-685.1	-154.15
843	-342.55	-359.68	-17.13	51.38	-274.04	-137.02	-17.13	119.89	205.53	-222.66	-205.53	-137.02	-17.13	0	-513.83	-411.06
844	-205.53	-291.17	0	119.89	-119.89	-85.64	0	85.64	188.4	-102.77	-102.77	-119.89	-34.26	-34.26	-205.53	-411.06
845	-17.13	-274.04	-51.38	34.26	85.64	119.89	205.53	34.26	68.51	85.64	0	-119.89	0	51.38	154.15	-393.93
846	-51.38	-274.04	-102.77	-34.26	68.51	188.4	308.3	17.13	34.26	85.64	-34.26	-154.15	0	17.13	188.4	-393.93
847	-205.53	-222.66	-291.17	-291.17	-137.02	154.15	308.3	0	-34.26	-34.26	-119.89	-137.02	17.13	0	51.38	-205.53
848	-205.53	-119.89	-325.42	-342.55	-239.79	119.89	308.3	17.13	-34.26	-102.77	-119.89	-51.38	68.51	0	34.26	0
849	-34.26	51.38	-137.02	-85.64	17.13	274.04	428.19	274.04	119.89	154.15	239.79	445.32	411.06	308.3	256.91	530.95
850	-17.13	34.26	-17.13	0	137.02	393.93	496.7	376.81	188.4	291.17	376.81	599.46	479.57	325.42	239.79	513.83
851	17.13	0	51.38	34.26	119.89	513.83	565.21	530.95	119.89	308.3	411.06	650.85	445.32	205.53	-34.26	274.04
852	0	0	0	0	0	496.7	565.21	548.08	0	239.79	359.68	616.59	411.06	137.02	-119.89	137.02
853	-119.89	-102.77	-205.53	-205.53	-102.77	393.93	496.7	496.7	-102.77	171.28	291.17	599.46	291.17	51.38	-171.28	-102.77
854	-171.28	-205.53	-291.17	-256.91	-85.64	376.81	428.19	411.06	-85.64	256.91	308.3	616.59	256.91	51.38	-137.02	-239.79
855	-222.66	-342.55	-376.81	-274.04	-17.13	308.3	205.53	171.28	-34.26	308.3	325.42	513.83	119.89	0	0	-496.7
856	-171.28	-342.55	-393.93	-325.42	-34.26	188.4	34.26	34.26	-102.77	239.79	205.53	393.93	51.38	0	0	-565.21
857	-154.15	-291.17	-411.06	-376.81	-239.79	-68.51	-188.4	-137.02	-274.04	-17.13	17.13	154.15	17.13	-102.77	34.26	-530.95
858	-171.28	-256.91	-462.44	-393.93	-342.55	-205.53	-274.04	-171.28	-291.17	0	-34.26	119.89	-17.13	-102.77	68.51	-479.57
859	-222.66	-222.66	-462.44	-325.42	-291.17	-256.91	-359.68	-205.53	-154.15	154.15	137.02	137.02	0	0	256.91	-342.55
860	-171.28	-222.66	-393.93	-274.04	-171.28	-256.91	-393.93	-222.66	-137.02	274.04	205.53	137.02	-34.26	-17.13	325.42	-325.42
861	-119.89	-171.28	-325.42	-274.04	0	-239.79	-428.19	-256.91	-205.53	274.04	205.53	68.51	-102.77	-51.38	274.04	-222.66
862	-85.64	-154.15	-274.04	-291.17	-17.13	-256.91	-393.93	-222.66	-239.79	154.15	154.15	0	-137.02	-102.77	188.4	-256.91
863	-34.26	-34.26	-171.28	-171.28	-85.64	-205.53	-342.55	-137.02	-85.64	68.51	17.13	0	-154.15	-137.02	17.13	-274.04
864	-34.26	0	-85.64	-85.64	-85.64	-137.02	-308.3	-85.64	17.13	85.64	-17.13	-51.38	-137.02	-85.64	-137.02	-325.42
865	85.64	102.77	-51.38	-17.13	68.51	-137.02	-428.19	-137.02	-17.13	-102.77	-291.17	-462.44	-291.17	-171.28	-702.23	-342.55
866	119.89	68.51	-102.77	-34.26	119.89	-205.53	-530.95	-239.79	-137.02	-239.79	-393.93	-582.34	-393.93	-256.91	-873.5	-393.93
867	85.64	34.26	-171.28	-102.77	51.38	-222.66	-530.95	-376.81	-205.53	-171.28	-291.17	-582.34	-428.19	-376.81	-719.36	-376.81
868	17.13	17.13	-119.89	-85.64	0	-171.28	-411.06	-342.55	-85.64	-34.26	-102.77	-411.06	-342.55	-325.42	-445.32	-291.17
869	-34.26	0	68.51	68.51	-154.15	-51.38	-291.17	-188.4	68.51	137.02	102.77	-102.77	-171.28	-137.02	51.38	0
870	-85.64	-68.51	119.89	85.64	-154.15	-51.38	-239.79	-137.02	68.51	154.15	171.28	-51.38	-85.64	-34.26	205.53	102.77
871	-17.13	-68.51	34.26	51.38	0	-102.77	-308.3	-171.28	0	239.79	239.79	0	0	0	462.44	342.55
872	0	-17.13	-17.13	-34.26	119.89	-102.77	-274.04	-222.66	-51.38	308.3	325.42	34.26	34.26	68.51	633.72	479.57
873	34.26	222.66	-51.38	-51.38	154.15	-17.13	-137.02	-154.15	-85.64	428.19	445.32	239.79	308.3	222.66	959.14	736.48
874	0	274.04	-17.13	-34.26	51.38	17.13	-85.64	-51.38	-34.26	359.68	376.81	308.3	393.93	291.17	907.76	804.99
875	-17.13	274.04	51.38	-34.26	-119.89	34.26	-34.26	68.51	51.38	137.02	154.15	308.3	479.57	308.3	411.06	804.99
876	-17.13	205.53	34.26	34.26	-102.77	34.26	-34.26	137.02	119.89	68.51	68.51	325.42	479.57	256.91	119.89	753.61
877	68.51	274.04	17.13	34.26	85.64	85.64	34.26	171.28	119.89	0	0	308.3	479.57	188.4	-154.15	667.97
878	102.77	308.3	17.13	51.38	188.4	154.15	68.51	188.4	68.51	0	0	291.17	496.7	205.53	-222.66	650.85
879	0	137.02	188.4	137.02	17.13	85.64	154.15	205.53	34.26	-222.66	-256.91	119.89	393.93	188.4	-445.32	565.21
880	-137.02	0	256.91	171.28	-137.02	0	154.15	188.4	85.64	-325.42	-376.81	0	274.04	137.02	-565.21	479.57
881	-274.04	-102.77	137.02	188.4	-256.91	-17.13	239.79	239.79	291.17	-291.17	-359.68	-17.13	34.26	0	-616.59	-34.26
882	-222.66	-34.26	119.89	154.15	-137.02	51.38	325.42	308.3	256.91	-239.79	-239.79	51.38	85.64	51.38	-479.57	-51.38
883	-205.53	-34.26	205.53	154.15	-34.26	239.79	496.7	513.83	154.15	-119.89	0	291.17	376.81	291.17	-102.77	85.64
884	-239.79	-137.02	274.04	222.66	-119.89	239.79	530.95	599.46	171.28	-85.64	17.13	376.81	530.95	411.06	17.13	308.3
885	-376.81	-445.32	291.17	308.3	-342.55	119.89	513.83	633.72	291.17	-17.13	34.26	411.06	685.1	548.08	68.51	685.1
886	-376.81	-411.06	239.79	342.55	-325.42	68.51	479.57	582.34	325.42	0	17.13	428.19	702.23	548.08	34.26	787.87
887	-291.17	-222.66	119.89	188.4	-102.77	68.51	393.93	393.93	274.04	-34.26	-34.26	479.57	548.08	411.06	0	839.25
888	-274.04	-205.53	34.26	102.77	-34.26	17.13	342.55	274.04	205.53	0	-17.13	411.06	445.32	274.04	0	753.61
889	-274.04	-393.93	-188.4	-154.15	-205.53	-222.66	68.51	0	0	-171.28	-239.79	68.51	51.38	-34.26	-34.26	376.81
890	-274.04	-496.7	-308.3	-274.04	-342.55	-376.81	0	-102.77	-137.02	-342.55	-393.93	-51.38	-85.64	-188.4	-188.4	119.89
891	-205.53	-445.32	-359.68	-274.04	-376.81	-445.32	-137.02	-291.17	-256.91	-565.21	-582.34	-256.91	-376.81	-376.81	-496.7	-171.28
892	-85.64	-325.42	-222.66	-171.28	-256.91	-342.55	-102.77	-291.17	-188.4	-530.95	-513.83	-222.66	-342.55	-376.81	-513.83	-205.53
893	0	-119.89	0	34.26	-17.13	-34.26	34.26	-137.02	0	-274.04	-239.79	-102.77	-205.53	-256.91	-291.17	-154.15
894	-17.13	-85.64	17.13	68.51	17.13	34.26	119.89	-51.38	17.13	-137.02	-85.64	-34.26	-137.02	-171.28	-171.28	-205.53
895	-102.77	-171.28	-51.38	17.13	17.13	239.79	274.04	137.02	102.77	17.13	68.51	68.51	0	-68.51	17.13	-325.42
896	-51.38	-222.66	-51.38	0	17.13	308.3	359.68	222.66	171.28	51.38	137.02	154.15	85.64	17.13	154.15	-274.04
897	34.26	34.26	325.42	325.42	188.4	393.93	496.7	548.08	376.81	51.38	205.53	393.93	736.48	496.7	393.93	393.93
898	0	137.02	428.19	428.19	205.53	376.81	513.83	582.34	376.81	34.26	154.15	376.81	873.5	667.97	376.81	616.59
899	-17.13	-51.38	205.53	325.42	137.02	205.53	359.68	496.7	359.68	-34.26	-34.26	256.91	959.14	787.87	205.53	787.87
900	-85.64	-239.79	68.51	188.4	102.77	137.02	256.91	428.19	342.55	-68.51	-17.13	205.53	890.63	787.87	205.53	804.99
901	-51.38	-393.93	0	85.64	-34.26	0	102.77	308.3	291.17	-102.77	-51.38	256.91	736.48	685.1	274.04	787.87
902	-51.38	-359.68	102.77	154.15	-34.26	0	68.51	256.91	239.79	-119.89	-51.38	239.79	633.72	599.46	342.55	719.36
903	-51.38	-171.28	154.15	137.02	-102.77	-137.02	34.26	85.64	0	-154.15	-102.77	85.64	308.3	325.42	274.04	496.7
904	-51.38	-188.4	34.26	68.51	-51.38	-188.4	0	-17.13	-85.64	-154.15	-102.77	-34.26	85.64	119.89	205.53	256.91
905	17.13	-188.4	-154.15	-102.77	17.13	-205.53	-85.64	-222.66	-308.3	-137.02	-85.64	-308.3	-274.04	-188.4	102.77	-188.4
906	0	-137.02	-154.15	-102.77	51.38	-171.28	-171.28	-342.55	-359.68	-51.38	-17.13	-411.06	-411.06	-342.55	137.02	-411.06
907	85.64	34.26	-34.26	0	154.15	0	-256.91	-393.93	-428.19	85.64	85.64	-462.44	-530.95	-411.06	308.3	-702.23
908	137.02	51.38	34.26	17.13	205.53	17.13	-256.91	-376.81	-462.44	137.02	154.15	-462.44	-513.83	-393.93	393.93	-753.61
909	239.79	34.26	-34.26	-102.77	291.17	154.15	-222.66	-308.3	-513.83	137.02	171.28	-376.81	-359.68	-325.42	411.06	-685.1
910	274.04	51.38	-171.28	-239.79	274.04	171.28	-256.91	-291.17	-530.95	85.64	154.15	-325.42	-256.91	-239.79	376.81	-565.21
911	239.79	205.53	-274.04	-325.42	137.02	137.02	-291.17	-291.17	-479.57	68.51	85.64	-171.28	-51.38	-34.26	188.4	-239.79
912	205.53	256.91	-222.66	-256.91	85.64	68.51	-291.17	-256.91	-393.93	85.64	85.64	-119.89	0	0	119.89	-34.26
913	188.4	34.26	-102.77	-51.38	188.4	-34.26	-137.02	-137.02	-154.15	119.89	137.02	137.02	239.79	171.28	51.38	393.93
914	188.4	-34.26	-119.89	-85.64	171.28	-51.38	-85.64	-119.89	-102.77	68.51	85.64	205.53	256.91	188.4	34.26	479.57
915	188.4	17.13	-102.77	-85.64	34.26	-17.13	-17.13	-102.77	0	-34.26	0	256.91	137.02	137.02	-34.26	393.93
916	205.53	85.64	-51.38	-34.26	17.13	-34.26	0	-51.38	68.51	0	-34.26	188.4	34.26	34.26	0	274.04
917	256.91	239.79	0	17.13	137.02	34.26	0	-34.26	171.28	51.38	51.38	0	-137.02	-119.89	188.4	-17.13
918	274.04	274.04	0	51.38	188.4	51.38	0	17.13	154.15	137.02	85.64	-137.02	-256.91	-239.79	325.42	-222.66
919	325.42	308.3	-34.26	17.13	256.91	85.64	-85.64	-34.26	-34.26	256.91	154.15	-376.81	-530.95	-462.44	445.32	-633.72
920	359.68	342.55	-51.38	-17.13	256.91	119.89	-205.53	-154.15	-51.38	291.17	171.28	-462.44	-616.59	-530.95	411.06	-770.74
921	376.81	342.55	-137.02	-137.02	239.79	137.02	-359.68	-325.42	-51.38	274.04	137.02	-530.95	-599.46	-530.95	256.91	-770.74
922	325.42	256.91	-188.4	-205.53	171.28	68.51	-376.81	-291.17	0	205.53	51.38	-548.08	-479.57	-411.06	137.02	-650.85
923	34.26	-68.51	-308.3	-205.53	17.13	-119.89	-445.32	-171.28	51.38	17.13	-51.38	-582.34	-222.66	-102.77	-34.26	-376.81
924	0	-239.79	-308.3	-137.02	0	-274.04	-479.57	-154.15	51.38	17.13	-137.02	-582.34	-154.15	0	-137.02	-274.04
925	-34.26	-256.91	-205.53	-102.77	-34.26	-496.7	-565.21	-325.42	0	-85.64	-205.53	-548.08	-119.89	51.38	-256.91	-85.64
926	-17.13	-154.15	-171.28	-154.15	-34.26	-530.95	-582.34	-376.81	-17.13	-85.64	-188.4	-530.95	-137.02	34.26	-239.79	-17.13
927	17.13	0	-205.53	-274.04	-102.77	-479.57	-496.7	-376.81	51.38	-119.89	-171.28	-428.19	-154.15	0	-274.04	68.51
928	34.26	-34.26	-154.15	-222.66	-51.38	-411.06	-393.93	-274.04	154.15	-102.77	-171.28	-393.93	-171.28	0	-291.17	68.51
929	325.42	137.02	68.51	119.89	342.55	-51.38	0	-34.26	188.4	-102.77	-222.66	-325.42	-308.3	-239.79	-445.32	-154.15
930	462.44	359.68	137.02	119.89	496.7	17.13	51.38	-51.38	85.64	-154.15	-274.04	-291.17	-393.93	-342.55	-496.7	-291.17
931	513.83	599.46	68.51	0	376.81	102.77	119.89	-51.38	34.26	-154.15	-222.66	-222.66	-411.06	-496.7	-530.95	-445.32
932	445.32	565.21	51.38	0	205.53	119.89	68.51	-34.26	154.15	-68.51	-137.02	-154.15	-342.55	-462.44	-513.83	-462.44
933	359.68	462.44	154.15	119.89	171.28	137.02	51.38	171.28	376.81	68.51	51.38	0	-205.53	-239.79	-376.81	-411.06
934	376.81	513.83	256.91	188.4	308.3	171.28	68.51	205.53	376.81	154.15	137.02	-17.13	-102.77	-171.28	-256.91	-376.81
935	548.08	616.59	256.91	171.28	530.95	205.53	68.51	85.64	205.53	171.28	154.15	0	-34.26	-102.77	-34.26	-274.04
936	565.21	599.46	154.15	119.89	479.57	171.28	51.38	51.38	154.15	154.15	85.64	34.26	0	-17.13	0	-256.91
937	376.81	291.17	-34.26	34.26	85.64	17.13	-34.26	51.38	239.79	119.89	68.51	154.15	154.15	137.02	51.38	-239.79
938	239.79	137.02	0	85.64	0	-17.13	0	85.64	291.17	85.64	85.64	239.79	205.53	188.4	0	-205.53
939	102.77	68.51	154.15	239.79	-34.26	-85.64	-34.26	85.64	393.93	68.51	137.02	308.3	205.53	137.02	-119.89	-51.38
940	137.02	154.15	171.28	256.91	68.51	-85.64	-51.38	34.26	325.42	68.51	119.89	308.3	188.4	68.51	-154.15	-34.26
941	308.3	376.81	68.51	85.64	137.02	-119.89	-119.89	-51.38	137.02	51.38	51.38	239.79	119.89	17.13	-102.77	17.13
942	325.42	376.81	0	34.26	51.38	-119.89	-154.15	-119.89	51.38	51.38	51.38	171.28	34.26	0	-102.77	-34.26
943	205.53	119.89	-85.64	17.13	0	-34.26	-154.15	-102.77	51.38	85.64	85.64	85.64	-102.77	-102.77	-154.15	-17.13
944	154.15	17.13	-51.38	34.26	51.38	-34.26	-102.77	-34.26	85.64	137.02	137.02	68.51	-154.15	-171.28	-205.53	-34.26
945	308.3	291.17	68.51	137.02	291.17	68.51	68.51	68.51	154.15	256.91	239.79	68.51	-85.64	-102.77	-119.89	-137.02
946	359.68	411.06	154.15	171.28	239.79	119.89	154.15	137.02	171.28	274.04	239.79	85.64	-34.26	0	-17.13	-137.02
947	239.79	359.68	308.3	308.3	0	137.02	239.79	256.91	256.91	256.91	256.91	154.15	171.28	119.89	171.28	17.13
948	102.77	239.79	308.3	308.3	-102.77	119.89	239.79	291.17	274.04	205.53	256.91	188.4	256.91	154.15	274.04	188.4
949	-34.26	85.64	205.53	222.66	0	-34.26	154.15	308.3	205.53	188.4	274.04	308.3	376.81	256.91	393.93	513.83
950	-17.13	85.64	68.51	119.89	51.38	-34.26	137.02	274.04	119.89	239.79	308.3	411.06	411.06	291.17	411.06	599.46
951	34.26	154.15	-17.13	0	68.51	-34.26	102.77	222.66	34.26	325.42	376.81	616.59	445.32	359.68	308.3	616.59
952	34.26	68.51	0	17.13	-34.26	0	119.89	205.53	51.38	325.42	376.81	685.1	445.32	308.3	239.79	565.21
953	-17.13	-34.26	34.26	34.26	-137.02	51.38	119.89	274.04	119.89	308.3	376.81	719.36	428.19	222.66	171.28	445.32
954	-85.64	-51.38	17.13	17.13	-119.89	119.89	119.89	256.91	102.77	325.42	411.06	685.1	325.42	154.15	239.79	359.68
955	17.13	0	-51.38	-51.38	34.26	308.3	188.4	205.53	0	479.57	599.46	736.48	325.42	154.15	479.57	376.81
956	17.13	85.64	-51.38	-51.38	119.89	393.93	274.04	222.66	0	565.21	667.97	770.74	376.81	239.79	513.83	445.32
957	85.64	171.28	68.51	17.13	85.64	513.83	428.19	359.68	0	496.7	616.59	719.36	479.57	393.93	445.32	548.08
958	17.13	171.28	137.02	85.64	-17.13	479.57	479.57	376.81	85.64	411.06	530.95	599.46	496.7	428.19	342.55	599.46
959	-34.26	137.02	205.53	102.77	-34.26	308.3	359.68	325.42	205.53	274.04	342.55	256.91	445.32	428.19	256.91	616.59
960	-102.77	102.77	154.15	68.51	0	256.91	274.04	222.66	154.15	222.66	274.04	137.02	393.93	445.32	256.91	633.72
961	-34.26	51.38	17.13	17.13	-51.38	222.66	154.15	154.15	34.26	171.28	137.02	-51.38	428.19	445.32	171.28	376.81
962	-17.13	85.64	17.13	-17.13	-137.02	154.15	137.02	188.4	85.64	137.02	119.89	0	393.93	445.32	102.77	308.3
963	-34.26	85.64	17.13	34.26	-137.02	0	-34.26	119.89	154.15	137.02	85.64	34.26	274.04	308.3	102.77	274.04
964	-17.13	102.77	0	-17.13	-85.64	-34.26	-137.02	17.13	137.02	154.15	119.89	85.64	188.4	239.79	154.15	308.3
965	-34.26	0	-154.15	-119.89	-34.26	-51.38	-188.4	-85.64	0	222.66	188.4	188.4	17.13	119.89	308.3	274.04
966	-34.26	17.13	-154.15	-154.15	-34.26	-34.26	-102.77	-68.51	-68.51	256.91	222.66	205.53	0	68.51	393.93	256.91
967	17.13	102.77	0	-51.38	34.26	188.4	-17.13	-85.64	-68.51	325.42	274.04	171.28	-137.02	-51.38	325.42	239.79
968	0	171.28	137.02	17.13	85.64	256.91	0	-137.02	-34.26	256.91	239.79	68.51	-256.91	-188.4	274.04	119.89
969	0	68.51	154.15	119.89	17.13	137.02	-137.02	-274.04	17.13	-17.13	-34.26	-205.53	-565.21	-411.06	17.13	-171.28
970	-34.26	-17.13	68.51	34.26	-51.38	0	-188.4	-274.04	0	-137.02	-154.15	-325.42	-599.46	-411.06	-51.38	-291.17
971	-137.02	-17.13	0	-17.13	-171.28	-17.13	-102.77	-51.38	0	-85.64	-34.26	-239.79	-342.55	-154.15	-34.26	-222.66
972	-102.77	102.77	17.13	0	-102.77	51.38	34.26	51.38	0	17.13	68.51	-119.89	-102.77	-34.26	-17.13	-137.02
973	0	256.91	239.79	137.02	119.89	376.81	376.81	291.17	0	171.28	239.79	-85.64	85.64	188.4	-34.26	-222.66
974	34.26	239.79	239.79	154.15	137.02	411.06	393.93	308.3	17.13	137.02	137.02	-239.79	51.38	154.15	-137.02	-393.93
975	-17.13	51.38	34.26	51.38	-17.13	239.79	188.4	239.79	85.64	-51.38	-205.53	-650.85	-171.28	0	-530.95	-685.1
976	-102.77	0	-34.26	0	-119.89	85.64	85.64	171.28	119.89	-205.53	-359.68	-804.99	-256.91	-17.13	-685.1	-650.85
977	-102.77	-85.64	-102.77	-119.89	-34.26	-51.38	-34.26	-34.26	0	-359.68	-530.95	-873.5	-325.42	-51.38	-702.23	-462.44
978	-51.38	-85.64	-119.89	-154.15	0	-85.64	-34.26	-51.38	-34.26	-376.81	-582.34	-890.63	-376.81	-102.77	-633.72	-445.32
979	-17.13	-85.64	-171.28	-205.53	-34.26	-137.02	-222.66	-205.53	-154.15	-393.93	-650.85	-976.27	-565.21	-291.17	-530.95	-479.57
980	-34.26	-85.64	-154.15	-171.28	-17.13	-205.53	-256.91	-222.66	-205.53	-411.06	-650.85	-993.4	-616.59	-393.93	-513.83	-479.57
981	-137.02	-119.89	-34.26	-51.38	-154.15	-256.91	-239.79	-256.91	-239.79	-359.68	-565.21	-856.38	-685.1	-513.83	-462.44	-462.44
982	-119.89	-85.64	0	0	-205.53	-205.53	-171.28	-222.66	-222.66	-274.04	-393.93	-736.48	-633.72	-513.83	-393.93	-445.32
983	34.26	119.89	51.38	34.26	-34.26	34.26	0	-137.02	-85.64	-17.13	-34.26	-462.44	-565.21	-462.44	-154.15	-530.95
984	188.4	274.04	85.64	68.51	85.64	205.53	68.51	-51.38	0	34.26	34.26	-359.68	-530.95	-445.32	-51.38	-565.21
985	308.3	445.32	171.28	119.89	325.42	325.42	222.66	0	34.26	68.51	34.26	-205.53	-565.21	-479.57	-102.77	-650.85
986	239.79	376.81	205.53	154.15	274.04	308.3	256.91	17.13	51.38	34.26	0	-119.89	-530.95	-496.7	-256.91	-667.97
987	102.77	137.02	154.15	188.4	17.13	239.79	308.3	85.64	68.51	85.64	51.38	51.38	-291.17	-325.42	-359.68	-496.7
988	34.26	85.64	68.51	154.15	0	222.66	308.3	119.89	68.51	102.77	119.89	171.28	-68.51	-154.15	-256.91	-308.3
989	17.13	85.64	-34.26	-17.13	85.64	188.4	239.79	119.89	-17.13	51.38	68.51	222.66	119.89	137.02	85.64	154.15
990	17.13	34.26	-85.64	-119.89	85.64	34.26	137.02	34.26	-137.02	-51.38	17.13	119.89	102.77	137.02	188.4	359.68
991	-205.53	-256.91	-68.51	-137.02	-51.38	-222.66	-154.15	-222.66	-256.91	-325.42	-291.17	-51.38	-85.64	0	137.02	548.08
992	-274.04	-411.06	-34.26	-51.38	-171.28	-342.55	-325.42	-359.68	-239.79	-393.93	-411.06	-102.77	-171.28	-102.77	68.51	565.21
993	-171.28	-496.7	0	51.38	-119.89	-513.83	-393.93	-428.19	-291.17	-565.21	-599.46	-137.02	-308.3	-188.4	-154.15	342.55
994	-205.53	-479.57	0	0	-85.64	-530.95	-359.68	-496.7	-393.93	-582.34	-633.72	-205.53	-445.32	-342.55	-274.04	188.4
995	-239.79	-462.44	0	-85.64	-239.79	-616.59	-308.3	-616.59	-530.95	-513.83	-513.83	-393.93	-873.5	-787.87	-428.19	-188.4
996	-239.79	-411.06	-34.26	-119.89	-274.04	-565.21	-274.04	-582.34	-530.95	-393.93	-376.81	-462.44	-1010.52	-942.01	-462.44	-376.81
997	-137.02	-325.42	-34.26	-51.38	-51.38	-393.93	-68.51	-342.55	-445.32	-188.4	-137.02	-411.06	-976.27	-873.5	-342.55	-685.1
998	-102.77	-325.42	-51.38	-34.26	-34.26	-291.17	-17.13	-222.66	-411.06	-137.02	-51.38	-376.81	-856.38	-770.74	-256.91	-822.12
999	-102.77	-393.93	-51.38	-17.13	-51.38	-188.4	68.51	-256.91	-445.32	-34.26	137.02	-137.02	-719.36	-599.46	0	-993.4
1000	-137.02	-462.44	-34.26	0	-137.02	-137.02	68.51	-274.04	-393.93	17.13	291.17	51.38	-599.46	-530.95	119.89	-993.4
1001	-34.26	-359.68	0	0	-34.26	17.13	239.79	-51.38	-154.15	308.3	633.72	650.85	-137.02	-291.17	548.08	-650.85
1002	17.13	-274.04	0	0	68.51	154.15	359.68	85.64	-34.26	411.06	736.48	907.76	137.02	-85.64	719.36	-359.68
1003	68.51	-171.28	34.26	68.51	171.28	291.17	428.19	325.42	0	376.81	565.21	1096.16	667.97	308.3	736.48	239.79
1004	0	-171.28	68.51	119.89	34.26	239.79	325.42	291.17	0	239.79	359.68	959.14	770.74	411.06	548.08	445.32
1005	-119.89	-222.66	34.26	68.51	-171.28	0	-34.26	17.13	-102.77	-85.64	-51.38	530.95	565.21	325.42	34.26	548.08
1006	-137.02	-239.79	-17.13	0	-205.53	-137.02	-154.15	-34.26	-119.89	-171.28	-171.28	393.93	428.19	239.79	-102.77	445.32
1007	-137.02	-342.55	-239.79	-256.91	-85.64	-222.66	-291.17	-34.26	-154.15	-154.15	-137.02	274.04	274.04	154.15	-154.15	239.79
1008	-154.15	-393.93	-291.17	-325.42	-34.26	-154.15	-256.91	-17.13	-154.15	-102.77	-85.64	274.04	256.91	171.28	-119.89	154.15
1009	-137.02	-222.66	-137.02	-51.38	-102.77	51.38	-17.13	-17.13	-51.38	-137.02	-51.38	17.13	34.26	51.38	-411.06	-102.77
1010	-85.64	-34.26	0	-34.26	-102.77	85.64	0	-17.13	-34.26	-205.53	-137.02	-102.77	-17.13	-34.26	-616.59	-239.79
1011	34.26	205.53	34.26	-17.13	-51.38	154.15	85.64	0	-17.13	-274.04	-205.53	-274.04	-102.77	-34.26	-667.97	-342.55
1012	68.51	188.4	-17.13	-51.38	-51.38	188.4	154.15	34.26	-34.26	-274.04	-205.53	-256.91	-34.26	0	-530.95	-274.04
1013	0	17.13	-85.64	-68.51	-85.64	239.79	256.91	188.4	137.02	-137.02	-85.64	-17.13	119.89	68.51	-102.77	-85.64
1014	0	-85.64	-102.77	-17.13	-51.38	256.91	274.04	256.91	205.53	0	0	188.4	205.53	137.02	68.51	-34.26
1015	-51.38	-102.77	0	68.51	0	291.17	256.91	325.42	222.66	205.53	205.53	445.32	393.93	274.04	291.17	274.04
1016	-34.26	-68.51	85.64	51.38	68.51	308.3	256.91	342.55	222.66	256.91	274.04	548.08	496.7	359.68	342.55	479.57
1017	34.26	-34.26	68.51	51.38	205.53	274.04	256.91	376.81	308.3	256.91	239.79	548.08	633.72	513.83	428.19	856.38
1018	68.51	0	17.13	17.13	222.66	205.53	239.79	359.68	359.68	239.79	205.53	513.83	685.1	565.21	513.83	976.27
1019	34.26	0	-51.38	0	119.89	68.51	0	239.79	274.04	308.3	256.91	376.81	667.97	616.59	667.97	993.4
1020	0	-51.38	-51.38	0	34.26	34.26	-68.51	119.89	188.4	325.42	239.79	325.42	616.59	565.21	633.72	924.89
1021	-119.89	-137.02	-17.13	0	-85.64	-17.13	-222.66	-68.51	17.13	68.51	17.13	17.13	308.3	376.81	308.3	650.85
1022	-205.53	-171.28	-17.13	-34.26	-154.15	-68.51	-256.91	-102.77	34.26	-137.02	-154.15	-137.02	188.4	291.17	34.26	462.44
1023	-274.04	-239.79	-34.26	-34.26	-342.55	-239.79	-325.42	-137.02	17.13	-496.7	-530.95	-530.95	-34.26	119.89	-308.3	85.64
1024	-291.17	-325.42	-102.77	-85.64	-411.06	-359.68	-393.93	-171.28	-102.77	-496.7	-582.34	-702.23	-102.77	34.26	-393.93	0
1025	-205.53	-445.32	-325.42	-274.04	-154.15	-411.06	-530.95	-342.55	-256.91	-102.77	-274.04	-496.7	-102.77	-51.38	-291.17	-205.53
1026	-154.15	-393.93	-376.81	-256.91	-34.26	-342.55	-445.32	-291.17	-188.4	-34.26	-137.02	-274.04	-51.38	-34.26	-188.4	-171.28
1027	-119.89	-325.42	-376.81	-188.4	-51.38	-274.04	-222.66	-154.15	-102.77	-119.89	-51.38	119.89	68.51	0	17.13	-34.26
1028	-137.02	-342.55	-376.81	-239.79	-171.28	-291.17	-154.15	-154.15	-102.77	-137.02	-34.26	239.79	85.64	17.13	85.64	17.13
1029	-119.89	-342.55	-359.68	-308.3	-256.91	-291.17	-137.02	-205.53	-154.15	-68.51	0	376.81	85.64	0	325.42	171.28
1030	-102.77	-256.91	-325.42	-325.42	-171.28	-291.17	-102.77	-205.53	-154.15	0	51.38	359.68	68.51	0	376.81	239.79
1031	-34.26	-85.64	-274.04	-222.66	-34.26	-171.28	-85.64	-102.77	-51.38	17.13	51.38	188.4	68.51	51.38	428.19	325.42
1032	-34.26	-51.38	-205.53	-137.02	-51.38	-171.28	-68.51	-68.51	17.13	17.13	34.26	85.64	51.38	85.64	428.19	376.81
1033	-85.64	-222.66	-171.28	-34.26	-171.28	-222.66	-205.53	-102.77	68.51	34.26	17.13	-171.28	-34.26	119.89	393.93	393.93
1034	-51.38	-222.66	-154.15	-17.13	-137.02	-205.53	-256.91	-137.02	85.64	85.64	17.13	-291.17	-17.13	119.89	308.3	325.42
1035	-17.13	-85.64	-85.64	17.13	-34.26	-119.89	-325.42	-154.15	34.26	119.89	17.13	-359.68	-51.38	34.26	0	0
1036	17.13	17.13	-51.38	-34.26	-34.26	-102.77	-359.68	-154.15	-17.13	85.64	0	-325.42	-85.64	-34.26	-102.77	-171.28
1037	0	-34.26	-51.38	-102.77	-102.77	-222.66	-393.93	-205.53	-154.15	0	-34.26	-205.53	-34.26	-34.26	-205.53	-462.44
1038	0	0	-85.64	-137.02	-119.89	-274.04	-393.93	-205.53	-171.28	-34.26	0	-119.89	0	-17.13	-119.89	-411.06
1039	17.13	-34.26	-137.02	-119.89	0	-239.79	-325.42	-205.53	-119.89	34.26	51.38	17.13	34.26	-34.26	51.38	-154.15
1040	0	17.13	-154.15	-119.89	-34.26	-205.53	-274.04	-205.53	-85.64	68.51	68.51	68.51	34.26	0	137.02	-51.38
1041	0	-34.26	-119.89	-51.38	-222.66	-222.66	-256.91	-256.91	-137.02	171.28	188.4	154.15	-85.64	-222.66	325.42	-85.64
1042	-17.13	0	-85.64	-34.26	-171.28	-239.79	-291.17	-274.04	-154.15	205.53	256.91	188.4	-85.64	-239.79	445.32	-34.26
1043	137.02	171.28	0	0	51.38	-137.02	-256.91	-239.79	-51.38	274.04	325.42	205.53	-34.26	-102.77	599.46	119.89
1044	205.53	256.91	17.13	0	171.28	-17.13	-205.53	-205.53	-17.13	291.17	308.3	171.28	0	0	513.83	188.4
1045	205.53	308.3	68.51	34.26	137.02	119.89	-188.4	-171.28	-34.26	256.91	239.79	0	-17.13	0	205.53	205.53
1046	188.4	291.17	85.64	68.51	34.26	85.64	-239.79	-171.28	-85.64	188.4	154.15	-137.02	-34.26	-34.26	68.51	205.53
1047	137.02	274.04	68.51	68.51	-17.13	-17.13	-342.55	-137.02	-68.51	102.77	0	-342.55	17.13	51.38	17.13	239.79
1048	188.4	308.3	34.26	51.38	-34.26	0	-325.42	-51.38	-17.13	17.13	-34.26	-359.68	85.64	154.15	-51.38	274.04
1049	205.53	376.81	68.51	68.51	51.38	17.13	-205.53	85.64	68.51	-68.51	-154.15	-411.06	171.28	291.17	-291.17	188.4
1050	188.4	376.81	85.64	68.51	68.51	0	-137.02	119.89	34.26	-85.64	-188.4	-393.93	154.15	274.04	-291.17	119.89
